* Sea-Bird SB	E19plus Data	File:										
* FileName =	C:\Sea-Bird\	2011\kl_al	r_apr_2011	017.hex								
* Software Ve	rsion 1.49											
* Temperature	SN =  4708											
* Conductivit	y SN =  4708											
* System UpLo	ad Time = Ma	y 04 2011	11:24:25									
* ds												
* SeacatPlus	V 1.4D  SERI	AL NO. 470	8    04 Ma	y 2011  10:	54:14:00							
* vbatt = 13.	"4, vlith ="	"8.4, ioper"	=  61.3 m	"a, ipump ="	"74.2 ma,"							
* iext01 =	"5.3 ma, iext"	23 =  46.1	"ma,"									
* status = no	t logging											
* number of s	cans to aver	age = 1										
* samples = 4	"5703, free ="	"447744, c"	asts = 17									
* mode = prof	"ile, minimum"	cond freq	"= 3339, p"	ump delay =	45 sec							
* autorun = n	"o, ignore ma"	gnetic swi	tch = no									
* battery typ	e = ALKALINE	", battery"	cutoff =	7.5 volts								
* pressure se	nsor = strai	"n gauge, r"	ange = 508	0								
* SBE 38 = no	", Gas Tensio"	n Device =	no									
* Ext Volt 0	#NAME?	olt 1 = no	", Ext Volt"	"2 = yes, E"	xt Volt 3 =	yes						
* echo comman	ds = yes											
* output form	at = raw HEX											
* S>												
*												
* SeacatPlus	V 1.4D  SERI	AL NO. 470	8    04 Ma	y 2011  10:	54:22:00							
* temperature	:  10-mar-10											
*     TA0 = 1	2.16E-04											
*     TA1 = 2	6.92E-05											
*     TA2 = -	7.35E-07											
*     TA3 = 1	8.26E-08											
*     TOFFSET	= 0.000000e	0										
* conductivit	y:  10-mar-1	0										
*     G = -1.	3.80E+04											
*     H = 1.2	9.02E+03											
*     I = -1.	7.79E+01											
*     J = 2.9	8.91E-01											
*     CF0 = 2	8.39E+02											
*     CPCOR =	-9.570000e-	8										
*     CTCOR =	3.25E+00	6										
*     CSLOPE	= 1.000000e+	0										
* pressure S/	"N = 6483, ra"	nge = 508	psia:  05-	10-Mar								
*     PA0 = 1	2.77E-02											
*     PA1 = 1	5.48E-04											
*     PA2 = 7	1.05E-13											
*     PTCA0 =	5.25E+00	5										
*     PTCA1 =	6.71E+00	0										
*     PTCA2 =	-1.304667e-	1										
*     PTCB0 =	2.51E+00	1										
*     PTCB1 =	6.25E+00	4										
*     PTCB2 =	0.00E+00	0										
*     PTEMPA0	-7.394419	e+01										
*     PTEMPA1	= 4.819720e	1										
*     PTEMPA2	-2.329883	e-02										
*     POFFSET	= 0.000000e	0										
* volt 0: off	set = -4.637	"579e-02, s"	lope = 1.2	4.87E+04								
* volt 1: off	set = -4.611	"579e-02, s"	lope = 1.2	4.99E+04								
* volt 2: off	set = -4.590	"105e-02, s"	lope = 1.2	4.92E+04								
* volt 3: off	set = -4.639	"368e-02, s"	lope = 1.2	4.89E+04								
*     EXTFREQ	SF = 1.00001	1.00E+00										
* dh												
* cast  17 26	Apr 2011 16	:58:00 sam	ples 42402	"to 45703,"	"avg = 1, sto"	p = mag swit	ch					
* S>												
# nquan = 10												
# nvalues = 1	943											
# units = spe	cified											
# name 0 = de	pFM: Depth [	fresh wate	"r, m]"									
# name 1 = tv	290C: Temper	ature [ITS	"-90, deg C"	]								
# name 2 = sb	eox0Mg/L: Ox	"ygen, SBE"	43 [mg/l]									
# name 3 = sb	eox0PS: Oxyg	"en, SBE 43"	[% satura	tion]								
# name 4 = sp	ecc: Specifi	c Conducta	nce [uS/cm	]								
# name 5 = c0	uS/cm: Condu	ctivity [u	S/cm]									
# name 6 = sa	l00: Salinit	y [PSU]										
# name 7 = ob	"sscufa: OBS,"	Turner SC	UFA [NTU]									
# name 8 = fl	Scufa: Fluor	"escence, T"	urner SCUF	A [ug/L]								
# name 9 = fl	ag:  0.000e+	0										
# span 0 =	"0.483,"	152.908										
# span 1 =	"3.7510,"	7.5469										
# span 2 =	"8.39666,"	9.72171										
# span 3 =	"67.19874,"	75.27415										
# span 4 =	"58.220,"	134.34										
# span 5 =  3	"7.899501,  8"	1.120076										
# span 6 =	"0.0272,"	0.0598										
# span 7 =	"0.3082,"	0.7477										
# span 8 =	"0.3296,"	0.8325										
# span 9 = 0.	"0000e+00, 0."	0.00E+00										
# interval =	seconds: 0.2	5										
# start_time	= Apr 26 201	1 16:58:00										
# bad_flag =	-9.99E-29											
# sensor 0 =	Frequency 0	temperatu	"re, 4708,"	22-Dec-04								
# sensor 1 =	Frequency 1	conductiv	"ity, 4708,"	"22-Dec-04,"	cpcor = -9.	5.70E-05						
# sensor 2 =	Pressure Num	ber										
# sensor 3 =	Extrnl Volt	0  Oxygen	", SBE, pri"	"mary, 0740,"	2001-07-05							
# sensor 4 =	Extrnl Volt	1  Fluoro	"meter, Tur"	"ner, SCUFA,"	primary							
# sensor 5 =	Extrnl Volt	"2  OBS, T"	"urner, SCU"	FA								
# datcnv_date	= May 04 20	11 11:29:4	"2, 5.32a"									
# datcnv_in =	C:\Sea-Bird	\2011\kl_a	lr_apr_201	1017.hex C:	\Sea-Bird\20	05\4708.con						
# datcnv_skip	over = 0											
# file_type =	ascii											
*END*												
26-Apr-11													
Depth (m)	Temperature (°C)	Oxygen (mg/L)	Oxygen (% sat.)	Spec. Cond. (µs/cm)	Conductivity (µs/cm)	Salinity (PSU)	OBS (NTU)	Fluorescence (µg/L)	flag		Depth (m)	Spec. Cond. (µs/cm)
0.483	7.5469	8.39666	70.19372	58.22	37.899501	0.0272	0.7385	0.8313	0.00E+00			
0.773	6.9408	8.60408	70.86895	123.029	78.596793	0.0561	0.7416	0.8301	0.00E+00			
0.907	6.262	8.82853	71.49217	128.544	80.374449	0.0582	0.7263	0.8325	0.00E+00			
0.976	5.911	8.95624	71.88563	129.725	80.20252	0.0585	0.7385	0.8301	0.00E+00			
0.999	5.7036	9.03714	72.15368	130.602	80.202574	0.0588	0.7446	0.8325	0.00E+00			
1.007	5.5663	9.08753	72.30256	131.048	80.1166	0.0589	0.7385	0.8252	0.00E+00			
1.016	5.474	9.12511	72.43061	131.445	80.116624	0.059	0.7355	0.8325	0.00E+00			
1.04	5.4196	9.15062	72.53202	131.68	80.116638	0.0591	0.7416	0.8313	0.00E+00			
1.141	5.3887	9.17565	72.67286	131.531	79.944628	0.059	0.7416	0.8289	0.00E+00			
1.277	5.3639	9.19365	72.7694	131.922	80.116655	0.0592	0.7446	0.8276	0.00E+00			
1.305	5.3424	9.24466	73.13274	132.157	80.202671	0.0593	0.7263	0.8301	0.00E+00			
1.289	5.3825	9.23927	73.16532	132.407	80.460693	0.0594	0.7477	0.8289	0.00E+00			
1.316	5.4349	9.23405	73.22213	132.321	80.546691	0.0594	0.3754	0.3565	0.00E+00			
1.326	5.4654	9.23471	73.28472	132.423	80.690036	0.0595	0.3723	0.3577	0.00E+00			
1.327	5.4898	9.23722	73.35021	132.317	80.69003	0.0594	0.3723	0.3565	0.00E+00			
1.328	5.5092	9.24125	73.41866	132.233	80.690025	0.0594	0.3693	0.354	0.00E+00			
1.334	5.5201	9.24319	73.45444	132.186	80.690022	0.0594	0.3815	0.3333	0.00E+00			
1.354	5.5166	9.25865	73.5707	132.06	80.604011	0.0593	0.3723	0.3357	0.00E+00			
1.368	5.4819	9.27701	73.65119	131.976	80.460667	0.0593	0.3693	0.3333	0.00E+00			
1.367	5.4473	9.29009	73.68986	131.984	80.374665	0.0593	0.3693	0.3333	0.00E+00			
1.363	5.4194	9.30047	73.71958	132.105	80.374672	0.0593	0.3723	0.3345	0.00E+00			
1.364	5.3959	9.27865	73.50234	131.783	80.116647	0.0591	0.3754	0.3357	0.00E+00			
1.375	5.3757	9.28196	73.49054	131.87	80.116652	0.0592	0.3815	0.3345	0.00E+00			
1.38	5.3601	9.29283	73.54714	131.939	80.116656	0.0592	0.3693	0.332	0.00E+00			
1.37	5.3494	9.30815	73.64823	132.127	80.202669	0.0593	0.3754	0.3381	0.00E+00			
1.327	5.346	9.32356	73.76387	132.897	80.661397	0.0596	0.3723	0.3369	0.00E+00			
1.279	5.3475	9.33256	73.83781	132.418	80.374691	0.0594	0.3754	0.3381	0.00E+00			
1.267	5.3495	9.33922	73.89423	132.268	80.288679	0.0593	0.3632	0.3357	0.00E+00			
1.254	5.3431	9.37194	74.14111	132.437	80.374692	0.0594	0.3784	0.3333	0.00E+00			
1.182	5.3405	9.39955	74.35468	133.11	80.776081	0.0597	0.3693	0.3369	0.00E+00			
1.048	5.3482	9.41633	74.50216	133.077	80.776078	0.0597	0.3693	0.3308	0.00E+00			
0.922	5.3977	9.40876	74.53663	132.482	80.546698	0.0595	0.3723	0.3345	0.00E+00			
0.856	5.4535	9.39641	74.5449	131.44	80.059288	0.059	0.3815	0.3369	0.00E+00			
0.852	5.4402	9.38759	74.44963	131.308	79.944612	0.0589	0.3693	0.3345	0.00E+00			
0.868	5.3995	9.40075	74.47657	132.192	80.374674	0.0593	0.3784	0.3345	0.00E+00			
0.889	5.3735	9.42658	74.63152	132.446	80.460692	0.0594	0.3754	0.3333	0.00E+00			
0.916	5.3761	9.44403	74.77463	132.954	80.776069	0.0597	0.3784	0.3308	0.00E+00			
0.934	5.4231	9.43381	74.78374	132.513	80.632703	0.0595	0.3693	0.3345	0.00E+00			
0.938	5.4606	9.43041	74.82841	132.068	80.46067	0.0593	0.3662	0.332	0.00E+00			
0.93	5.4744	9.43007	74.85214	132.149	80.546678	0.0593	0.3876	0.3381	0.00E+00			
0.91	5.4768	9.43621	74.90552	132.468	80.747372	0.0595	0.3754	0.3357	0.00E+00			
0.868	5.4805	9.44687	74.99735	132.64	80.862054	0.0596	0.3845	0.3345	0.00E+00			
0.843	5.4837	9.43522	74.9108	132.109	80.546674	0.0593	0.3906	0.3357	0.00E+00			
0.889	5.4726	9.4376	74.90828	131.451	80.116623	0.059	0.3662	0.3369	0.00E+00			
1.007	5.4327	9.45038	74.93326	131.341	79.944615	0.059	0.3723	0.3345	0.00E+00			
1.138	5.3998	9.46189	74.96134	132.191	80.374676	0.0593	0.3754	0.3357	0.00E+00			
1.225	5.3841	9.47029	74.99791	132.542	80.546703	0.0595	0.3784	0.3345	0.00E+00			
1.29	5.4074	9.47074	75.04617	132.393	80.518027	0.0594	0.3662	0.3333	0.00E+00			
1.376	5.4838	9.48086	75.27321	131.967	80.460667	0.0593	0.3632	0.3345	0.00E+00			
1.419	5.5293	9.4639	75.22602	132.052	80.632679	0.0593	0.3754	0.3357	0.00E+00			
1.434	5.5457	9.45771	75.20832	131.7	80.460651	0.0592	0.3754	0.3381	0.00E+00			
1.442	5.547	9.44731	75.12804	131.413	80.288629	0.0591	0.3693	0.3345	0.00E+00			
1.44	5.5099	9.45288	75.10123	131.713	80.374649	0.0592	0.3784	0.3369	0.00E+00			
1.443	5.46	9.46834	75.12805	131.788	80.288652	0.0592	0.3723	0.3333	0.00E+00			
1.447	5.4215	9.48253	75.16678	132.237	80.460684	0.0594	0.3662	0.3333	0.00E+00			
1.444	5.3996	9.48409	75.13699	132.05	80.288667	0.0593	0.3632	0.3357	0.00E+00			
1.442	5.3814	9.48815	75.13399	132.271	80.374683	0.0593	0.3723	0.3333	0.00E+00			
1.45	5.3653	9.49507	75.15789	132.341	80.374687	0.0594	0.3723	0.3381	0.00E+00			
1.461	5.3583	9.50429	75.21752	132.796	80.632724	0.0596	0.3754	0.3394	0.00E+00			
1.469	5.3582	9.50735	75.2414	132.891	80.690066	0.0596	0.3693	0.332	0.00E+00			
1.471	5.3538	9.50993	75.25333	132.816	80.632725	0.0596	0.3632	0.3552	0.00E+00			
1.47	5.3482	9.51392	75.27415	132.557	80.460703	0.0595	0.3662	0.3565	0.00E+00			
1.471	5.3397	9.513	75.25035	132.311	80.288683	0.0593	0.3754	0.3552	0.00E+00			
1.474	5.3275	9.51522	75.24443	132.222	80.202676	0.0593	0.3723	0.3589	0.00E+00			
1.478	5.3146	9.51913	75.25042	132.136	80.116669	0.0592	0.3693	0.3577	0.00E+00			
1.482	5.3055	9.51874	75.22963	131.893	79.944652	0.0591	0.3723	0.3552	0.00E+00			
1.491	5.301	9.51683	75.2059	131.77	79.858644	0.0591	0.3754	0.3565	0.00E+00			
1.494	5.3009	9.5225	75.25058	131.912	79.944653	0.0591	0.3876	0.354	0.00E+00			
1.496	5.3002	9.51666	75.20298	131.916	79.944654	0.0591	0.3723	0.332	0.00E+00			
1.495	5.298	9.5168	75.2	131.925	79.944654	0.0591	0.3784	0.3345	0.00E+00			
1.496	5.2947	9.51611	75.1881	131.987	79.973325	0.0592	0.3693	0.3357	0.00E+00			
1.502	5.2905	9.51677	75.18518	131.958	79.944656	0.0591	0.3723	0.332	0.00E+00			
1.514	5.2878	9.51782	75.18828	131.97	79.944657	0.0591	0.3754	0.3345	0.00E+00			
1.519	5.287	9.51388	75.15559	131.973	79.944657	0.0591	0.3693	0.3345	0.00E+00			
1.512	5.2905	9.51073	75.13767	132.383	80.202686	0.0593	0.3815	0.3296	0.00E+00			
1.497	5.3007	9.5071	75.12859	132.623	80.374704	0.0595	0.3693	0.3357	0.00E+00			
1.483	5.3062	9.50011	75.08381	132.031	80.030661	0.0592	0.3693	0.354	0.00E+00			
1.485	5.3044	9.49716	75.05705	131.945	79.973322	0.0591	0.3693	0.3565	0.00E+00			
1.503	5.2982	9.49644	75.03936	132.066	80.030664	0.0592	0.3784	0.3552	0.00E+00			
1.514	5.2951	9.49756	75.04245	132.221	80.116674	0.0593	0.3723	0.3565	0.00E+00			
1.524	5.3005	9.49891	75.06339	132.34	80.202683	0.0593	0.3723	0.3565	0.00E+00			
1.53	5.3087	9.50216	75.10511	132.73	80.460714	0.0595	0.3693	0.3601	0.00E+00			
1.541	5.311	9.49974	75.09033	132.72	80.460713	0.0595	0.3662	0.3565	0.00E+00			
1.553	5.3119	9.50067	75.09938	132.716	80.460713	0.0595	0.3723	0.3565	0.00E+00			
1.55	5.3127	9.50085	75.10234	132.712	80.460713	0.0595	0.3754	0.3552	0.00E+00			
1.537	5.313	9.50114	75.10518	132.806	80.518054	0.0595	0.3754	0.3552	0.00E+00			
1.522	5.3139	9.49713	75.07527	132.707	80.460712	0.0595	0.3754	0.3565	0.00E+00			
1.519	5.3161	9.49773	75.08417	132.414	80.28869	0.0594	0.3723	0.3528	0.00E+00			
1.522	5.3166	9.49422	75.05741	132.27	80.202679	0.0593	0.3723	0.3516	0.00E+00			
1.524	5.3172	9.4918	75.03958	132.55	80.3747	0.0594	0.3754	0.3577	0.00E+00			
1.533	5.3194	9.49243	75.04859	132.541	80.3747	0.0594	0.3723	0.3552	0.00E+00			
1.541	5.3249	9.48808	75.02486	132.517	80.374698	0.0594	0.3815	0.3528	0.00E+00			
1.553	5.3321	9.48748	75.03391	132.58	80.432037	0.0595	0.3723	0.3357	0.00E+00			
1.565	5.3393	9.48121	74.99831	132.974	80.690071	0.0596	0.3815	0.332	0.00E+00			
1.566	5.3439	9.47973	74.99535	132.859	80.632729	0.0596	0.3845	0.3357	0.00E+00			
1.558	5.3433	9.47797	74.98039	132.862	80.632729	0.0596	0.3632	0.3357	0.00E+00			
1.535	5.341	9.47548	74.95635	133.25	80.862096	0.0598	0.3662	0.3333	0.00E+00			
1.516	5.3408	9.47101	74.92045	132.731	80.546717	0.0595	0.3662	0.3345	0.00E+00			
1.516	5.3426	9.46643	74.88771	132.439	80.374694	0.0594	0.3784	0.3357	0.00E+00			
1.531	5.3407	9.46391	74.86405	132.164	80.202673	0.0593	0.3784	0.3345	0.00E+00			
1.558	5.3345	9.46432	74.85539	132.475	80.374696	0.0594	0.3754	0.3345	0.00E+00			
1.584	5.3401	9.45923	74.82589	132.876	80.63273	0.0596	0.3723	0.3345	0.00E+00			
1.602	5.3505	9.45972	74.84987	133.208	80.862094	0.0598	0.3693	0.3308	0.00E+00			
1.608	5.3655	9.45309	74.82613	133.284	80.948103	0.0598	0.3723	0.3369	0.00E+00			
1.607	5.4043	9.44258	74.81719	132.973	80.86208	0.0597	0.3784	0.3333	0.00E+00			
1.599	5.439	9.43118	74.7933	132.679	80.776058	0.0596	0.3754	0.3308	0.00E+00			
1.583	5.4633	9.4208	74.75743	132.715	80.862064	0.0596	0.3723	0.3369	0.00E+00			
1.563	5.4785	9.41487	74.73938	132.319	80.661364	0.0594	0.3723	0.3394	0.00E+00			
1.548	5.488	9.40808	74.70351	132.231	80.632691	0.0594	0.3815	0.3345	0.00E+00			
1.548	5.4913	9.40241	74.66482	132.076	80.546678	0.0593	0.3754	0.3357	0.00E+00			
1.561	5.4788	9.39869	74.61138	132.13	80.546681	0.0593	0.3662	0.3357	0.00E+00			
1.583	5.4695	9.40169	74.61755	132.311	80.632696	0.0594	0.3815	0.3369	0.00E+00			
1.604	5.4723	9.40178	74.62371	132.534	80.776049	0.0595	0.3265	0.3357	0.00E+00			
1.621	5.4744	9.39979	74.61197	132.807	80.948075	0.0596	0.3265	0.3357	0.00E+00			
1.637	5.4779	9.39299	74.56452	132.604	80.83339	0.0596	0.3235	0.332	0.00E+00			
1.652	5.4949	9.38854	74.56168	132.718	80.94807	0.0596	0.3204	0.3333	0.00E+00			
1.656	5.5082	9.38163	74.53196	132.52	80.862053	0.0595	0.3174	0.3333	0.00E+00			
1.649	5.5192	9.37372	74.49023	132.472	80.86205	0.0595	0.3174	0.3345	0.00E+00			
1.639	5.5294	9.36753	74.46036	132.286	80.776034	0.0594	0.3143	0.3369	0.00E+00			
1.632	5.5368	9.36427	74.44839	132.114	80.69002	0.0594	0.3296	0.3308	0.00E+00			
1.628	5.5398	9.35981	74.41859	132.101	80.690019	0.0594	0.3632	0.3357	0.00E+00			
1.635	5.543	9.35231	74.36509	131.852	80.546665	0.0593	0.3754	0.3369	0.00E+00			
1.649	5.5466	9.34998	74.35333	131.79	80.517994	0.0592	0.3754	0.3357	0.00E+00			
1.668	5.5396	9.35279	74.36244	132.008	80.632678	0.0593	0.3815	0.3381	0.00E+00			
1.684	5.5361	9.3469	74.30903	132.398	80.862046	0.0595	0.3754	0.3333	0.00E+00			
1.694	5.5391	9.34694	74.31507	132.526	80.948058	0.0596	0.3754	0.3369	0.00E+00			
1.692	5.5444	9.34081	74.27636	132.362	80.862044	0.0595	0.3632	0.3345	0.00E+00			
1.68	5.5595	9.33644	74.27029	132.297	80.86204	0.0595	0.3662	0.3357	0.00E+00			
1.659	5.5744	9.32465	74.20462	132.092	80.776023	0.0594	0.3296	0.3357	0.00E+00			
1.632	5.5819	9.3217	74.19542	132.153	80.833362	0.0594	0.3265	0.3345	0.00E+00			
1.606	5.5879	9.30903	74.10588	132.174	80.862032	0.0594	0.3143	0.3381	0.00E+00			
1.585	5.5949	9.31109	74.13544	132.003	80.776017	0.0594	0.3174	0.3333	0.00E+00			
1.57	5.5982	9.30132	74.06386	131.849	80.690003	0.0593	0.3815	0.332	0.00E+00			
1.571	5.5971	9.29933	74.04602	131.759	80.632662	0.0593	0.3754	0.3357	0.00E+00			
1.583	5.586	9.29712	74.00744	131.807	80.632665	0.0593	0.3693	0.3357	0.00E+00			
1.606	5.569	9.30117	74.00767	132.115	80.776024	0.0594	0.3754	0.3296	0.00E+00			
1.624	5.5612	9.30043	73.98701	132.149	80.776026	0.0594	0.3754	0.3394	0.00E+00			
1.63	5.5627	9.30231	74.00492	132.33	80.890709	0.0595	0.3723	0.3357	0.00E+00			
1.621	5.5753	9.29482	73.96913	132.65	81.120076	0.0596	0.3571	0.3369	0.00E+00			
1.608	5.6054	9.28208	73.92436	132.239	80.94804	0.0595	0.3662	0.3369	0.00E+00			
1.591	5.6337	9.27276	73.90335	131.836	80.776007	0.0593	0.3754	0.3357	0.00E+00			
1.581	5.6506	9.2609	73.84076	131.763	80.776002	0.0593	0.3723	0.3345	0.00E+00			
1.571	5.6571	9.25414	73.799	131.595	80.689988	0.0592	0.3815	0.3381	0.00E+00			
1.572	5.6591	9.25107	73.77817	131.353	80.546634	0.0591	0.3815	0.3345	0.00E+00			
1.586	5.6547	9.24652	73.73367	131.465	80.603977	0.0592	0.3723	0.3369	0.00E+00			
1.607	5.6466	9.25068	73.75173	131.78	80.776003	0.0593	0.3723	0.3357	0.00E+00			
1.626	5.648	9.24963	73.74596	131.774	80.776003	0.0593	0.3754	0.3369	0.00E+00			
1.633	5.6473	9.24607	73.71627	132.058	80.948029	0.0594	0.3571	0.3345	0.00E+00			
1.631	5.6473	9.24643	73.71922	132.058	80.948029	0.0594	0.3784	0.3357	0.00E+00			
1.616	5.6604	9.23624	73.66253	132.002	80.948026	0.0594	0.3784	0.3345	0.00E+00			
1.606	5.6723	9.22895	73.62672	131.95	80.948023	0.0594	0.3754	0.3381	0.00E+00			
1.594	5.6797	9.22088	73.57601	131.405	80.632641	0.0591	0.3693	0.3369	0.00E+00			
1.584	5.6815	9.21408	73.52532	131.584	80.747323	0.0592	0.3265	0.3369	0.00E+00			
1.583	5.681	9.21161	73.50448	131.633	80.775994	0.0592	0.3296	0.3381	0.00E+00			
1.59	5.6813	9.20893	73.48371	131.631	80.775994	0.0592	0.3326	0.332	0.00E+00			
1.601	5.6841	9.20418	73.45108	131.76	80.862006	0.0593	0.3326	0.332	0.00E+00			
1.617	5.6873	9.20084	73.4304	131.746	80.862006	0.0593	0.3723	0.3552	0.00E+00			
1.628	5.6864	9.19844	73.40967	131.75	80.862006	0.0593	0.3815	0.3528	0.00E+00			
1.629	5.6808	9.19603	73.37992	131.774	80.862007	0.0593	0.3723	0.354	0.00E+00			
1.623	5.6774	9.19608	73.37392	131.835	80.890679	0.0593	0.3662	0.3528	0.00E+00			
1.61	5.6797	9.19215	73.34701	131.918	80.948021	0.0594	0.3693	0.3357	0.00E+00			
1.598	5.6848	9.1861	73.3082	131.756	80.862006	0.0593	0.3784	0.3308	0.00E+00			
1.592	5.6866	9.17896	73.25457	131.609	80.775993	0.0592	0.3723	0.3333	0.00E+00			
1.592	5.6833	9.17938	73.25159	131.623	80.775994	0.0592	0.3754	0.3357	0.00E+00			
1.593	5.6814	9.17308	73.19803	131.911	80.94802	0.0594	0.3296	0.3357	0.00E+00			
1.596	5.6843	9.17503	73.21889	131.899	80.948019	0.0594	0.3204	0.3357	0.00E+00			
1.606	5.6868	9.17407	73.21601	131.888	80.948019	0.0594	0.3235	0.3345	0.00E+00			
1.613	5.6874	9.1732	73.21012	131.792	80.890677	0.0593	0.3296	0.332	0.00E+00			
1.617	5.6854	9.1651	73.14171	132.034	81.034033	0.0594	0.3693	0.3345	0.00E+00			
1.621	5.6846	9.16716	73.15664	131.898	80.94802	0.0594	0.3815	0.3381	0.00E+00			
1.62	5.6849	9.17269	73.20127	131.756	80.862006	0.0593	0.3754	0.3381	0.00E+00			
1.617	5.6868	9.16403	73.13576	131.888	80.948019	0.0594	0.3784	0.3333	0.00E+00			
1.609	5.6886	9.15801	73.09105	131.88	80.948018	0.0594	0.3754	0.3345	0.00E+00			
1.602	5.6912	9.15813	73.09693	132.009	81.034031	0.0594	0.3723	0.3345	0.00E+00			
1.595	5.6938	9.15752	73.09686	131.671	80.833333	0.0593	0.3845	0.3296	0.00E+00			
1.597	5.6957	9.15485	73.07903	131.57	80.77599	0.0592	0.3723	0.3345	0.00E+00			
1.605	5.6953	9.15084	73.04636	131.851	80.948017	0.0594	0.3723	0.3333	0.00E+00			
1.612	5.6946	9.14953	73.03452	131.714	80.862004	0.0593	0.3723	0.3369	0.00E+00			
1.615	5.6959	9.14551	73.00479	131.849	80.948017	0.0594	0.3693	0.3308	0.00E+00			
1.616	5.6967	9.14979	73.04052	131.705	80.862003	0.0593	0.3815	0.3394	0.00E+00			
1.617	5.6964	9.14724	73.01969	131.706	80.862003	0.0593	0.3845	0.3394	0.00E+00			
1.619	5.6972	9.14034	72.96614	131.703	80.862003	0.0593	0.3754	0.3333	0.00E+00			
1.621	5.6999	9.13861	72.95724	131.738	80.890673	0.0593	0.3693	0.3381	0.00E+00			
1.616	5.7006	9.13583	72.93635	131.829	80.948015	0.0593	0.3662	0.3357	0.00E+00			
1.607	5.7045	9.13305	72.92139	131.672	80.862001	0.0593	0.3693	0.3369	0.00E+00			
1.603	5.7092	9.12487	72.8648	131.652	80.862	0.0593	0.3754	0.3369	0.00E+00			
1.607	5.711	9.12298	72.85294	131.504	80.775987	0.0592	0.3754	0.3333	0.00E+00			
1.62	5.7084	9.12209	72.84116	131.655	80.862	0.0593	0.3845	0.332	0.00E+00			
1.634	5.7042	9.12159	72.82939	131.673	80.862001	0.0593	0.3662	0.3308	0.00E+00			
1.638	5.7052	9.11914	72.81156	131.996	81.062699	0.0594	0.3723	0.3357	0.00E+00			
1.64	5.7061	9.11855	72.80861	131.805	80.948014	0.0593	0.3693	0.3394	0.00E+00			
1.637	5.7083	9.11505	72.78477	131.796	80.948013	0.0593	0.3723	0.3333	0.00E+00			
1.625	5.7166	9.11162	72.77275	131.9	81.034025	0.0594	0.3662	0.3333	0.00E+00			
1.603	5.724	9.10429	72.7279	131.588	80.861996	0.0593	0.3815	0.3345	0.00E+00			
1.578	5.7285	9.09987	72.70087	131.709	80.948008	0.0593	0.3693	0.3333	0.00E+00			
1.564	5.7305	9.09194	72.64121	131.42	80.775981	0.0592	0.3754	0.3345	0.00E+00			
1.565	5.7268	9.0876	72.59956	131.39	80.747311	0.0592	0.3693	0.3357	0.00E+00			
1.579	5.7159	9.09087	72.60564	131.483	80.775985	0.0592	0.3754	0.3345	0.00E+00			
1.592	5.7062	9.08792	72.5641	131.665	80.862	0.0593	0.3754	0.3345	0.00E+00			
1.594	5.7018	9.08817	72.55817	131.963	81.034028	0.0594	0.3815	0.3369	0.00E+00			
1.596	5.7034	9.08445	72.53141	131.816	80.948014	0.0593	0.3815	0.3333	0.00E+00			
1.599	5.7184	9.07803	72.50762	131.612	80.861997	0.0593	0.3784	0.3394	0.00E+00			
1.604	5.7296	9.06874	72.4541	131.564	80.861994	0.0592	0.3693	0.3357	0.00E+00			
1.608	5.7294	9.06097	72.39164	131.425	80.775982	0.0592	0.3693	0.3333	0.00E+00			
1.607	5.7243	9.06324	72.40056	131.633	80.890667	0.0593	0.3693	0.3333	0.00E+00			
1.601	5.7241	9.05919	72.36776	131.728	80.948009	0.0593	0.3693	0.3369	0.00E+00			
1.592	5.7272	9.05399	72.33197	131.574	80.861995	0.0592	0.3784	0.3357	0.00E+00			
1.584	5.7273	9.04725	72.27832	131.714	80.948008	0.0593	0.3632	0.3381	0.00E+00			
1.579	5.7255	9.04655	72.26934	131.722	80.948008	0.0593	0.3662	0.3577	0.00E+00			
1.579	5.7217	9.03849	72.19792	131.458	80.775983	0.0592	0.3632	0.3552	0.00E+00			
1.583	5.7178	9.03828	72.18903	131.475	80.775985	0.0592	0.3693	0.3516	0.00E+00			
1.589	5.7145	9.03681	72.17122	131.676	80.890669	0.0593	0.3723	0.3565	0.00E+00			
1.594	5.7132	9.03262	72.13556	131.774	80.948012	0.0593	0.3723	0.3333	0.00E+00			
1.603	5.7141	9.02944	72.11184	131.631	80.861998	0.0593	0.3662	0.3357	0.00E+00			
1.605	5.7151	9.02587	72.08507	131.626	80.861998	0.0593	0.3754	0.3345	0.00E+00			
1.605	5.7168	9.02363	72.07019	131.619	80.861998	0.0593	0.3845	0.3345	0.00E+00			
1.602	5.7174	9.01937	72.03742	131.616	80.861998	0.0593	0.3754	0.3589	0.00E+00			
1.594	5.7174	9.01451	71.99866	131.616	80.861998	0.0593	0.3601	0.354	0.00E+00			
1.586	5.7184	9.01169	71.97774	131.612	80.861997	0.0593	0.3784	0.3577	0.00E+00			
1.587	5.7194	9.00549	71.93014	131.421	80.747313	0.0592	0.3815	0.3552	0.00E+00			
1.589	5.7185	9.00459	71.92123	131.612	80.861997	0.0593	0.3815	0.332	0.00E+00			
1.589	5.7172	9.00524	71.9242	131.617	80.861998	0.0593	0.3754	0.3357	0.00E+00			
1.59	5.7162	9.00323	71.90636	131.762	80.948011	0.0593	0.3754	0.3345	0.00E+00			
1.585	5.717	9.00305	71.90631	131.898	81.034024	0.0594	0.3845	0.3369	0.00E+00			
1.58	5.7175	9.00107	71.89138	131.756	80.948011	0.0593	0.3632	0.3577	0.00E+00			
1.579	5.7173	8.9985	71.87054	131.617	80.861997	0.0593	0.3845	0.3552	0.00E+00			
1.579	5.7166	8.99642	71.85268	131.666	80.890669	0.0593	0.3723	0.3589	0.00E+00			
1.578	5.717	8.99708	71.85863	131.618	80.861998	0.0593	0.3784	0.3601	0.00E+00			
1.578	5.7178	8.99393	71.83482	131.615	80.861997	0.0593	0.3723	0.354	0.00E+00			
1.577	5.7188	8.99407	71.83778	131.611	80.861997	0.0593	0.3754	0.3552	0.00E+00			
1.569	5.7199	8.99119	71.81688	131.746	80.94801	0.0593	0.3845	0.3503	0.00E+00			
1.557	5.7209	8.98833	71.79593	131.741	80.948009	0.0593	0.3723	0.3552	0.00E+00			
1.548	5.7223	8.98913	71.80477	131.736	80.948009	0.0593	0.3754	0.3357	0.00E+00			
1.544	5.7242	8.98309	71.76009	131.727	80.948009	0.0593	0.3815	0.3381	0.00E+00			
1.548	5.7248	8.9826	71.75715	131.538	80.833324	0.0592	0.3784	0.3333	0.00E+00			
1.564	5.7219	8.97844	71.71862	131.317	80.689971	0.0591	0.3937	0.3394	0.00E+00			
1.576	5.7163	8.9827	71.74254	131.761	80.948011	0.0593	0.3296	0.3345	0.00E+00			
1.589	5.7151	8.98262	71.73969	131.766	80.948011	0.0593	0.3204	0.3333	0.00E+00			
1.601	5.7144	8.97833	71.70409	131.489	80.775986	0.0592	0.3235	0.3345	0.00E+00			
1.604	5.715	8.97781	71.70114	131.767	80.948011	0.0593	0.3235	0.3345	0.00E+00			
1.601	5.7222	8.97767	71.71301	131.736	80.948009	0.0593	0.3754	0.332	0.00E+00			
1.586	5.733	8.96884	71.66228	131.736	80.976678	0.0593	0.3815	0.3345	0.00E+00			
1.574	5.7412	8.96472	71.6443	131.514	80.861991	0.0592	0.3662	0.3357	0.00E+00			
1.56	5.7446	8.96021	71.61441	131.5	80.86199	0.0592	0.3754	0.3308	0.00E+00			
1.554	5.7405	8.95629	71.57567	131.238	80.689966	0.0591	0.3693	0.3552	0.00E+00			
1.552	5.7353	8.95898	71.58755	131.54	80.861993	0.0592	0.3784	0.3565	0.00E+00			
1.554	5.7317	8.95533	71.55186	131.555	80.861993	0.0592	0.3754	0.3577	0.00E+00			
1.562	5.7313	8.95355	71.53705	131.697	80.948007	0.0593	0.3723	0.3565	0.00E+00			
1.571	5.7334	8.94975	71.51035	131.408	80.77598	0.0592	0.3815	0.354	0.00E+00			
1.581	5.7341	8.94737	71.4926	131.499	80.833322	0.0592	0.3723	0.3565	0.00E+00			
1.594	5.7328	8.94804	71.49569	131.41	80.775981	0.0592	0.3723	0.3552	0.00E+00			
1.594	5.7315	8.94649	71.48081	131.556	80.861994	0.0592	0.3754	0.3552	0.00E+00			
1.588	5.7291	8.93993	71.42421	131.846	81.034021	0.0594	0.3693	0.3577	0.00E+00			
1.576	5.7266	8.93603	71.38838	131.437	80.775982	0.0592	0.3723	0.3528	0.00E+00			
1.566	5.7248	8.94239	71.4359	131.445	80.775983	0.0592	0.3754	0.3565	0.00E+00			
1.564	5.7245	8.92606	71.30493	131.446	80.775983	0.0592	0.3693	0.3577	0.00E+00			
1.561	5.7222	8.92621	71.30193	131.55	80.833325	0.0592	0.3815	0.3357	0.00E+00			
1.561	5.7209	8.92837	71.31681	131.602	80.861996	0.0593	0.3845	0.3357	0.00E+00			
1.561	5.7205	8.92808	71.31383	131.463	80.775984	0.0592	0.3784	0.332	0.00E+00			
1.565	5.7204	8.91693	71.22459	131.464	80.775984	0.0592	0.3693	0.3308	0.00E+00			
1.574	5.7187	8.91322	71.19193	131.611	80.861997	0.0593	0.3723	0.3333	0.00E+00			
1.586	5.7189	8.9199	71.24562	131.61	80.861997	0.0593	0.3693	0.3345	0.00E+00			
1.589	5.718	8.90819	71.15041	131.614	80.861997	0.0593	0.3632	0.3381	0.00E+00			
1.588	5.717	8.90542	71.12659	131.758	80.948011	0.0593	0.3723	0.3345	0.00E+00			
1.586	5.7171	8.90206	71.09979	131.571	80.833327	0.0592	0.3723	0.3357	0.00E+00			
1.583	5.7193	8.89707	71.06404	131.608	80.861997	0.0593	0.3754	0.3381	0.00E+00			
1.583	5.721	8.89595	71.05809	131.601	80.861996	0.0593	0.3754	0.3308	0.00E+00			
1.587	5.722	8.89275	71.03432	131.597	80.861996	0.0593	0.3693	0.3357	0.00E+00			
1.584	5.7228	8.8892	71.00751	131.733	80.948009	0.0593	0.3662	0.3333	0.00E+00			
1.571	5.7241	8.88406	70.96869	131.728	80.948009	0.0593	0.3754	0.3345	0.00E+00			
1.561	5.7262	8.87723	70.91801	131.579	80.861995	0.0593	0.3784	0.3333	0.00E+00			
1.562	5.7274	8.8684	70.84957	131.527	80.833324	0.0592	0.3723	0.3357	0.00E+00			
1.565	5.7262	8.86755	70.84067	131.579	80.861995	0.0593	0.3754	0.3333	0.00E+00			
1.57	5.7256	8.86845	70.84666	131.302	80.68997	0.0591	0.3815	0.3308	0.00E+00			
1.574	5.7247	8.86307	70.80206	131.445	80.775983	0.0592	0.3723	0.3333	0.00E+00			
1.574	5.7254	8.85993	70.77825	131.443	80.775982	0.0592	0.3693	0.3345	0.00E+00			
1.579	5.7265	8.85596	70.74854	131.438	80.775982	0.0592	0.3784	0.332	0.00E+00			
1.578	5.7258	8.85016	70.70092	131.441	80.775982	0.0592	0.3754	0.3357	0.00E+00			
1.574	5.7251	8.84694	70.67409	131.583	80.861995	0.0593	0.3723	0.3369	0.00E+00			
1.566	5.7248	8.84516	70.65914	131.398	80.747312	0.0592	0.3723	0.3357	0.00E+00			
1.562	5.7242	8.84342	70.64422	131.448	80.775983	0.0592	0.3754	0.3357	0.00E+00			
1.558	5.723	8.83511	70.57572	131.453	80.775983	0.0592	0.3723	0.332	0.00E+00			
1.556	5.7227	8.83144	70.54594	131.454	80.775983	0.0592	0.3845	0.3369	0.00E+00			
1.556	5.7211	8.83068	70.53701	131.461	80.775983	0.0592	0.3723	0.3357	0.00E+00			
1.556	5.7203	8.82118	70.45964	131.464	80.775984	0.0592	0.3815	0.3345	0.00E+00			
1.561	5.7197	8.81908	70.44183	131.467	80.775984	0.0592	0.3723	0.3357	0.00E+00			
1.569	5.7203	8.81822	70.43595	131.558	80.833326	0.0592	0.3845	0.3296	0.00E+00			
1.576	5.721	8.81286	70.39435	131.601	80.861996	0.0593	0.3723	0.332	0.00E+00			
1.584	5.7222	8.81259	70.39442	131.456	80.775983	0.0592	0.3754	0.3345	0.00E+00			
1.585	5.7232	8.80864	70.36467	131.592	80.861996	0.0593	0.3571	0.332	0.00E+00			
1.576	5.7238	8.80552	70.34078	131.449	80.775983	0.0592	0.3723	0.3333	0.00E+00			
1.568	5.7235	8.80111	70.30499	131.451	80.775983	0.0592	0.3815	0.3357	0.00E+00			
1.561	5.7229	8.80011	70.296	131.593	80.861996	0.0593	0.3815	0.3345	0.00E+00			
1.556	5.7226	8.79459	70.25131	131.548	80.833325	0.0592	0.3723	0.3333	0.00E+00			
1.556	5.7224	8.79166	70.2275	131.315	80.689971	0.0591	0.3693	0.3345	0.00E+00			
1.558	5.72	8.78474	70.168	131.465	80.775984	0.0592	0.3784	0.3345	0.00E+00			
1.558	5.7202	8.78023	70.13228	131.605	80.861997	0.0593	0.3815	0.332	0.00E+00			
1.557	5.721	8.77818	70.11739	131.321	80.689971	0.0591	0.3815	0.3357	0.00E+00			
1.564	5.7199	8.77286	70.07282	131.466	80.775984	0.0592	0.3723	0.3357	0.00E+00			
1.574	5.7191	8.76745	70.02827	131.469	80.775984	0.0592	0.3815	0.3369	0.00E+00			
1.582	5.7184	8.76464	70.00453	131.472	80.775984	0.0592	0.3845	0.3357	0.00E+00			
1.582	5.7177	8.75995	69.96584	131.569	80.833326	0.0592	0.3754	0.3333	0.00E+00			
1.582	5.7169	8.75602	69.9331	131.339	80.689972	0.0591	0.3815	0.332	0.00E+00			
1.58	5.7156	8.75296	69.9063	131.484	80.775985	0.0592	0.3693	0.3308	0.00E+00			
1.58	5.715	8.74749	69.86166	131.487	80.775985	0.0592	0.3693	0.3345	0.00E+00			
1.58	5.715	8.74415	69.83487	131.347	80.689973	0.0591	0.3662	0.332	0.00E+00			
1.576	5.7153	8.74297	69.82591	131.346	80.689973	0.0591	0.3723	0.3333	0.00E+00			
1.577	5.716	8.73574	69.76938	131.343	80.689973	0.0591	0.3723	0.3357	0.00E+00			
1.58	5.7164	8.7293	69.7188	131.434	80.747314	0.0592	0.3296	0.3357	0.00E+00			
1.587	5.7164	8.72485	69.68316	131.248	80.632631	0.0591	0.3326	0.3333	0.00E+00			
1.599	5.7158	8.72164	69.65649	131.343	80.689973	0.0591	0.3143	0.3333	0.00E+00			
1.605	5.7155	8.71948	69.63868	131.345	80.689973	0.0591	0.3235	0.3308	0.00E+00			
1.609	5.7156	8.71349	69.5911	131.624	80.861998	0.0593	0.3754	0.3552	0.00E+00			
1.608	5.7165	8.71218	69.58216	131.48	80.775985	0.0592	0.3754	0.3565	0.00E+00			
1.607	5.7154	8.70198	69.49882	131.345	80.689973	0.0591	0.3784	0.3565	0.00E+00			
1.603	5.7156	8.70006	69.4839	131.484	80.775985	0.0592	0.3723	0.3528	0.00E+00			
1.595	5.716	8.69514	69.44514	131.576	80.833327	0.0592	0.3632	0.3345	0.00E+00			
1.584	5.7167	8.69012	69.40635	131.48	80.775985	0.0592	0.3723	0.3333	0.00E+00			
1.583	5.7169	8.6856	69.37063	131.619	80.861998	0.0593	0.3784	0.3345	0.00E+00			
1.581	5.7163	8.68387	69.35573	131.341	80.689972	0.0591	0.3815	0.3357	0.00E+00			
1.59	5.7154	8.67924	69.31712	131.345	80.689973	0.0591	0.3815	0.3345	0.00E+00			
1.594	5.7139	8.67771	69.30228	131.492	80.775986	0.0592	0.3815	0.3357	0.00E+00			
1.597	5.7139	8.67248	69.26064	131.491	80.775986	0.0592	0.3754	0.3357	0.00E+00			
1.602	5.7137	8.66918	69.23389	131.586	80.833328	0.0592	0.3815	0.3345	0.00E+00			
1.606	5.7137	8.66137	69.17144	131.352	80.689973	0.0591	0.3754	0.3528	0.00E+00			
1.605	5.7139	8.65946	69.15655	131.492	80.775986	0.0592	0.3815	0.3589	0.00E+00			
1.602	5.714	8.65571	69.12675	131.491	80.775986	0.0592	0.3815	0.3552	0.00E+00			
1.592	5.7135	8.64983	69.07905	131.493	80.775986	0.0592	0.3723	0.3565	0.00E+00			
1.582	5.713	8.64808	69.06408	131.496	80.775986	0.0592	0.3845	0.3577	0.00E+00			
1.582	5.714	8.64226	69.01943	131.351	80.689973	0.0591	0.3784	0.354	0.00E+00			
1.586	5.7142	8.63514	68.96293	131.63	80.861998	0.0593	0.3662	0.3552	0.00E+00			
1.59	5.7124	8.63219	68.93617	131.591	80.833328	0.0592	0.3754	0.3516	0.00E+00			
1.589	5.7116	8.6305	68.92128	131.361	80.689974	0.0591	0.3845	0.3565	0.00E+00			
1.588	5.7111	8.62689	68.89151	131.504	80.775986	0.0592	0.3754	0.354	0.00E+00			
1.589	5.7094	8.62353	68.86176	131.371	80.689974	0.0591	0.3906	0.3613	0.00E+00			
1.594	5.7081	8.61675	68.80526	131.376	80.689975	0.0591	0.3662	0.3503	0.00E+00			
1.596	5.7068	8.60847	68.73683	131.522	80.775988	0.0592	0.3326	0.354	0.00E+00			
1.591	5.7051	8.6077	68.72785	131.529	80.775988	0.0592	0.3296	0.3552	0.00E+00			
1.589	5.7045	8.6056	68.70998	131.345	80.661305	0.0591	0.3174	0.3577	0.00E+00			
1.581	5.7048	8.60328	68.69205	131.53	80.775988	0.0592	0.3235	0.3516	0.00E+00			
1.584	5.7053	8.59274	68.60875	131.528	80.775988	0.0592	0.3723	0.3369	0.00E+00			
1.589	5.7029	8.58769	68.56415	131.399	80.689976	0.0592	0.3815	0.3333	0.00E+00			
1.592	5.701	8.58736	68.55822	131.407	80.689977	0.0592	0.3601	0.3357	0.00E+00			
1.594	5.7008	8.58441	68.53443	131.548	80.775989	0.0592	0.3723	0.3357	0.00E+00			
1.591	5.7	8.58087	68.50464	131.411	80.689977	0.0592	0.3815	0.3369	0.00E+00			
1.595	5.6993	8.57543	68.46004	131.414	80.689977	0.0592	0.3693	0.3333	0.00E+00			
1.608	5.6973	8.57067	68.41849	131.376	80.661307	0.0591	0.3723	0.3357	0.00E+00			
1.619	5.6952	8.56891	68.40073	131.432	80.689978	0.0592	0.3815	0.3345	0.00E+00			
1.627	5.6935	8.5663	68.37699	131.439	80.689979	0.0592	0.3815	0.3357	0.00E+00			
1.625	5.692	8.55692	68.29959	131.445	80.689979	0.0592	0.3723	0.3333	0.00E+00			
1.621	5.69	8.55623	68.29064	131.594	80.775992	0.0592	0.3815	0.3345	0.00E+00			
1.622	5.6896	8.55148	68.25196	131.456	80.68998	0.0592	0.3693	0.3369	0.00E+00			
1.62	5.6889	8.54715	68.21622	131.599	80.775992	0.0592	0.3784	0.3516	0.00E+00			
1.612	5.6873	8.54786	68.21912	131.559	80.747322	0.0592	0.3723	0.3565	0.00E+00			
1.603	5.6859	8.54293	68.17738	131.471	80.689981	0.0592	0.3754	0.3565	0.00E+00			
1.595	5.6861	8.53841	68.14159	131.377	80.632639	0.0591	0.3662	0.3528	0.00E+00			
1.597	5.6855	8.5307	68.07912	131.473	80.689981	0.0592	0.3204	0.3357	0.00E+00			
1.605	5.6837	8.53373	68.10002	131.481	80.689981	0.0592	0.3296	0.332	0.00E+00			
1.609	5.6807	8.52729	68.04351	131.4	80.632641	0.0591	0.3235	0.3345	0.00E+00			
1.614	5.6807	8.52768	68.04653	131.4	80.632641	0.0591	0.3204	0.3333	0.00E+00			
1.614	5.6817	8.52074	67.99295	131.489	80.689982	0.0592	0.3754	0.3552	0.00E+00			
1.615	5.6825	8.51722	67.96618	131.58	80.747323	0.0592	0.3754	0.3577	0.00E+00			
1.617	5.6842	8.51126	67.92156	131.479	80.689981	0.0592	0.3784	0.354	0.00E+00			
1.616	5.6836	8.50802	67.89476	131.248	80.546628	0.0591	0.3815	0.3552	0.00E+00			
1.614	5.6837	8.50762	67.89177	131.387	80.63264	0.0591	0.3662	0.3552	0.00E+00			
1.602	5.6834	8.49612	67.7994	131.482	80.689981	0.0592	0.3693	0.3552	0.00E+00			
1.586	5.6844	8.49625	67.80223	131.384	80.632639	0.0591	0.3815	0.3528	0.00E+00			
1.575	5.6843	8.4903	67.75451	131.385	80.632639	0.0591	0.3754	0.3565	0.00E+00			
1.577	5.6833	8.48643	67.72179	131.343	80.603969	0.0591	0.3204	0.3565	0.00E+00			
1.585	5.6803	8.48222	67.68317	131.495	80.689982	0.0592	0.3235	0.3601	0.00E+00			
1.602	5.6769	8.4785	67.64762	131.51	80.689983	0.0592	0.3265	0.3565	0.00E+00			
1.619	5.6762	8.47755	67.63884	131.513	80.689983	0.0592	0.3357	0.3552	0.00E+00			
1.643	5.6771	8.46955	67.57656	131.416	80.632642	0.0591	0.3693	0.3552	0.00E+00			
1.705	5.6767	8.47121	67.58902	131.417	80.632642	0.0591	0.3754	0.3552	0.00E+00			
1.778	5.6603	8.4681	67.5361	131.347	80.546635	0.0591	0.3845	0.3552	0.00E+00			
1.849	5.6166	8.47687	67.53078	131.769	80.690001	0.0593	0.3723	0.3503	0.00E+00			
1.936	5.5699	8.48147	67.48691	131.924	80.661343	0.0593	0.3815	0.3528	0.00E+00			
2.026	5.5339	8.48749	67.47283	132.032	80.632682	0.0593	0.3723	0.3516	0.00E+00			
2.123	5.5112	8.48802	67.43798	131.989	80.546677	0.0593	0.3693	0.3528	0.00E+00			
2.229	5.4973	8.48517	67.39131	132.285	80.690035	0.0594	0.3662	0.3552	0.00E+00			
2.341	5.4836	8.4804	67.3298	132.25	80.632698	0.0594	0.3754	0.3528	0.00E+00			
2.459	5.467	8.48187	67.313	132.181	80.546691	0.0594	0.3784	0.3516	0.00E+00			
2.576	5.446	8.48244	67.2813	132.508	80.690051	0.0595	0.3723	0.3516	0.00E+00			
2.686	5.435	8.48644	67.29418	132.414	80.604042	0.0594	0.3845	0.3565	0.00E+00			
2.79	5.4315	8.48583	67.2832	132.335	80.546703	0.0594	0.3723	0.3748	0.00E+00			
2.889	5.4342	8.48347	67.2692	132.465	80.632715	0.0595	0.3754	0.3796	0.00E+00			
2.98	5.4459	8.47916	67.25513	132.273	80.546701	0.0594	0.3815	0.3748	0.00E+00			
3.057	5.4603	8.47725	67.26475	132.351	80.632709	0.0594	0.3754	0.3748	0.00E+00			
3.134	5.4738	8.47066	67.23567	132.293	80.632706	0.0594	0.3693	0.4187	0.00E+00			
3.229	5.478	8.4691	67.23056	132.274	80.632706	0.0594	0.3723	0.4163	0.00E+00			
3.333	5.4738	8.46602	67.19874	131.964	80.432014	0.0593	0.3723	0.4187	0.00E+00			
3.444	5.4597	8.47107	67.21461	131.93	80.374678	0.0592	0.3815	0.4163	0.00E+00			
3.552	5.4479	8.47674	67.23938	132.264	80.546704	0.0594	0.3845	0.4211	0.00E+00			
3.655	5.4447	8.4783	67.24626	132.278	80.546706	0.0594	0.3754	0.4163	0.00E+00			
3.751	5.4392	8.48373	67.27985	132.537	80.690062	0.0595	0.3723	0.4199	0.00E+00			
3.839	5.4431	8.48372	67.28659	132.426	80.63272	0.0595	0.3662	0.4163	0.00E+00			
3.931	5.4657	8.48194	67.31123	132.328	80.632715	0.0594	0.3845	0.4395	0.00E+00			
4.02	5.4875	8.4773	67.31203	132.092	80.546698	0.0593	0.3784	0.4358	0.00E+00			
4.104	5.5029	8.47631	67.33063	131.978	80.518024	0.0593	0.3754	0.4395	0.00E+00			
4.181	5.514	8.47887	67.37003	132.118	80.632704	0.0594	0.3754	0.4419	0.00E+00			
4.263	5.5219	8.48138	67.4035	131.943	80.54669	0.0593	0.3723	0.4382	0.00E+00			
4.363	5.5244	8.48657	67.44905	131.792	80.460679	0.0592	0.3784	0.4431	0.00E+00			
4.475	5.516	8.49113	67.47089	131.687	80.374671	0.0592	0.3754	0.4382	0.00E+00			
4.578	5.4947	8.50076	67.51052	131.92	80.460688	0.0593	0.3723	0.4346	0.00E+00			
4.67	5.4795	8.50941	67.55303	132.268	80.632716	0.0594	0.3723	0.4602	0.00E+00			
4.764	5.4697	8.51764	67.6015	132.264	80.604049	0.0594	0.3754	0.4602	0.00E+00			
4.863	5.469	8.52541	67.66194	132.031	80.460697	0.0593	0.3723	0.4639	0.00E+00			
4.963	5.4768	8.52721	67.68963	132.139	80.546707	0.0593	0.3845	0.4602	0.00E+00			
5.058	5.482	8.52655	67.69346	131.975	80.460695	0.0593	0.3754	0.459	0.00E+00			
5.151	5.4805	8.53674	67.77171	131.982	80.460696	0.0593	0.3876	0.4602	0.00E+00			
5.234	5.4806	8.54093	67.80521	132.263	80.63272	0.0594	0.3784	0.4614	0.00E+00			
5.321	5.4822	8.54442	67.83577	132.115	80.546709	0.0593	0.3754	0.4565	0.00E+00			
5.415	5.4809	8.55681	67.93189	131.98	80.460698	0.0593	0.3723	0.5005	0.00E+00			
5.516	5.4764	8.56881	68.01915	131.952	80.43203	0.0593	0.3754	0.5005	0.00E+00			
5.615	5.4698	8.58123	68.1064	131.886	80.374691	0.0592	0.3693	0.5005	0.00E+00			
5.701	5.4646	8.59222	68.1846	132.191	80.546716	0.0594	0.3754	0.4981	0.00E+00			
5.788	5.4653	8.60006	68.24791	132.33	80.632729	0.0594	0.3845	0.5982	0.00E+00			
5.877	5.4676	8.60678	68.3053	132.178	80.546717	0.0594	0.3815	0.6043	0.00E+00			
5.973	5.4683	8.61611	68.38062	132.317	80.632729	0.0594	0.3754	0.6043	0.00E+00			
6.073	5.4669	8.61956	68.40535	131.899	80.374696	0.0592	0.3754	0.6018	0.00E+00			
6.164	5.4656	8.62668	68.45977	132.281	80.604061	0.0594	0.3754	0.625	0.00E+00			
6.252	5.4698	8.63447	68.52906	132.404	80.690072	0.0595	0.3754	0.6238	0.00E+00			
6.336	5.473	8.6395	68.5745	132.155	80.546719	0.0593	0.3784	0.625	0.00E+00			
6.421	5.4759	8.6431	68.60803	132.001	80.460707	0.0593	0.3723	0.6262	0.00E+00			
6.517	5.4768	8.64489	68.62379	131.998	80.460708	0.0593	0.3754	0.6665	0.00E+00			
6.617	5.4754	8.65656	68.71404	132.003	80.460709	0.0593	0.3632	0.6653	0.00E+00			
6.714	5.4738	8.66116	68.74768	131.869	80.374699	0.0592	0.3784	0.6604	0.00E+00			
6.806	5.4751	8.66284	68.76341	132.146	80.546722	0.0593	0.3693	0.6665	0.00E+00			
6.89	5.4768	8.67044	68.82671	132.092	80.518051	0.0593	0.3754	0.7044	0.00E+00			
6.975	5.4793	8.67074	68.83344	132.128	80.546722	0.0593	0.3754	0.708	0.00E+00			
7.059	5.4786	8.674	68.85804	132.131	80.546723	0.0593	0.3815	0.7056	0.00E+00			
7.141	5.4772	8.67964	68.90048	131.996	80.460712	0.0593	0.3754	0.7068	0.00E+00			
7.219	5.477	8.68465	68.93991	132.138	80.546724	0.0593	0.3754	0.7276	0.00E+00			
7.295	5.4791	8.68577	68.95252	132.27	80.632736	0.0594	0.3815	0.7263	0.00E+00			
7.384	5.484	8.6848	68.95334	131.684	80.28869	0.0591	0.3815	0.7288	0.00E+00			
7.491	5.4796	8.69003	68.98707	131.703	80.288692	0.0591	0.3754	0.7263	0.00E+00			
7.604	5.4547	8.70433	69.05661	131.811	80.288699	0.0592	0.3723	0.7666	0.00E+00			
7.714	5.4149	8.70994	69.03081	131.983	80.288711	0.0592	0.3815	0.7654	0.00E+00			
7.814	5.3901	8.71747	69.04661	132.374	80.46074	0.0594	0.3815	0.7654	0.00E+00			
7.917	5.3765	8.72551	69.08628	132.434	80.460744	0.0594	0.3693	0.7666	0.00E+00			
8.016	5.367	8.72851	69.09314	132.334	80.374736	0.0594	0.3784	0.7678	0.00E+00			
8.116	5.3578	8.73632	69.13874	132.374	80.374739	0.0594	0.3754	0.7703	0.00E+00			
8.209	5.3485	8.73926	69.14555	132.414	80.374743	0.0594	0.3815	0.7703	0.00E+00			
8.311	5.339	8.7449	69.17329	132.456	80.374746	0.0594	0.3754	0.763	0.00E+00			
8.409	5.3292	8.74836	69.18313	132.215	80.202728	0.0593	0.3601	0.791	0.00E+00			
8.517	5.3086	8.75346	69.18709	132.446	80.288744	0.0594	0.3662	0.7886	0.00E+00			
8.628	5.2733	8.76605	69.22385	132.601	80.288754	0.0594	0.3754	0.7874	0.00E+00			
8.736	5.2284	8.77856	69.24272	132.656	80.202756	0.0594	0.3723	0.7874	0.00E+00			
8.843	5.1885	8.79712	69.31817	133.116	80.374789	0.0596	0.3693	0.7654	0.00E+00			
8.942	5.1677	8.80421	69.33696	132.923	80.202774	0.0595	0.3906	0.7703	0.00E+00			
9.047	5.165	8.80836	69.36474	132.935	80.202775	0.0595	0.3815	0.7678	0.00E+00			
9.16	5.1493	8.81508	69.38961	133.004	80.20278	0.0595	0.3754	0.7678	0.00E+00			
9.275	5.1073	8.82778	69.41449	132.904	80.030772	0.0594	0.3754	0.7898	0.00E+00			
9.388	5.0636	8.83975	69.43042	132.954	79.944774	0.0594	0.3754	0.7849	0.00E+00			
9.501	5.029	8.8599	69.5268	133.107	79.944784	0.0595	0.3784	0.7886	0.00E+00			
9.61	5.0046	8.86751	69.54271	133.216	79.944791	0.0595	0.3662	0.7898	0.00E+00			
9.718	4.9841	8.87537	69.56753	133.163	79.858788	0.0595	0.3662	0.7874	0.00E+00			
9.821	4.9612	8.8849	69.60126	133.552	80.030814	0.0596	0.3845	0.7861	0.00E+00			
9.924	4.949	8.89012	69.62008	133.271	79.830129	0.0595	0.3723	0.7874	0.00E+00			
10.031	4.9425	8.89174	69.62107	133.348	79.858801	0.0595	0.3784	0.7874	0.00E+00			
10.144	4.917	8.90077	69.64594	133.318	79.7728	0.0595	0.3815	0.7666	0.00E+00			
10.254	4.8718	8.9136	69.66483	133.52	79.772812	0.0596	0.3754	0.7678	0.00E+00			
10.367	4.8241	8.92739	69.68673	133.445	79.600809	0.0595	0.3845	0.7678	0.00E+00			
10.48	4.7727	8.94248	69.71161	133.387	79.428807	0.0594	0.3693	0.7691	0.00E+00			
10.6	4.7178	8.95344	69.69782	133.392	79.285477	0.0594	0.3326	0.7483	0.00E+00			
10.716	4.668	8.96554	69.70187	133.52	79.228153	0.0594	0.3235	0.7434	0.00E+00			
10.828	4.6262	8.98117	69.7476	133.515	79.113489	0.0594	0.3235	0.7446	0.00E+00			
10.934	4.5951	8.98814	69.7456	133.8	79.199504	0.0595	0.3326	0.7483	0.00E+00			
11.041	4.5724	8.99936	69.79129	133.612	79.027499	0.0594	0.3754	0.7446	0.00E+00			
11.142	4.5544	8.99946	69.75944	133.693	79.027504	0.0594	0.3754	0.7507	0.00E+00			
11.243	4.5521	9.00434	69.79315	133.558	78.9415	0.0594	0.3723	0.7507	0.00E+00			
11.348	4.5404	9.00991	69.81499	133.466	78.855498	0.0593	0.3723	0.7483	0.00E+00			
11.473	4.5181	9.02069	69.85786	133.275	78.683495	0.0592	0.3204	0.7678	0.00E+00			
11.594	4.4903	9.0262	69.85004	133.304	78.626167	0.0592	0.3265	0.7642	0.00E+00			
11.713	4.4679	9.04086	69.92266	133.211	78.511502	0.0591	0.3235	0.7666	0.00E+00			
11.819	4.4572	9.0439	69.92662	133.259	78.511505	0.0592	0.3204	0.763	0.00E+00			
11.925	4.453	9.04577	69.93356	133.278	78.511507	0.0592	0.3265	0.73	0.00E+00			
12.029	4.4478	9.04944	69.95241	133.155	78.425506	0.0591	0.3296	0.7276	0.00E+00			
12.138	4.435	9.05799	69.99514	133.067	78.339506	0.0591	0.3174	0.7251	0.00E+00			
12.253	4.4178	9.0672	70.03495	132.999	78.253509	0.059	0.3296	0.73	0.00E+00			
12.357	4.4031	9.07621	70.07764	133.065	78.253513	0.059	0.3204	0.7678	0.00E+00			
12.457	4.3917	9.08289	70.10838	133.263	78.33952	0.0591	0.3265	0.7666	0.00E+00			
12.563	4.3842	9.09291	70.17194	133.005	78.167517	0.059	0.3326	0.7654	0.00E+00			
12.668	4.374	9.10008	70.20869	133.344	78.339526	0.0591	0.3265	0.7678	0.00E+00			
12.775	4.3622	9.11037	70.26631	133.105	78.167524	0.059	0.3235	0.708	0.00E+00			
12.891	4.3459	9.12173	70.32402	132.885	77.995525	0.0589	0.3235	0.7044	0.00E+00			
13.001	4.3316	9.13185	70.37572	132.95	77.99553	0.0589	0.3235	0.7056	0.00E+00			
13.106	4.3203	9.14046	70.42141	133.148	78.081535	0.059	0.3326	0.7068	0.00E+00			
13.217	4.3114	9.14311	70.42542	132.944	77.938202	0.0589	0.3265	0.7031	0.00E+00			
13.333	4.2965	9.15958	70.52487	132.865	77.852205	0.0589	0.3265	0.7031	0.00E+00			
13.445	4.2829	9.16919	70.57361	132.633	77.680208	0.0587	0.3204	0.7092	0.00E+00			
13.541	4.2725	9.17255	70.58047	133.072	77.909547	0.0589	0.3265	0.7068	0.00E+00			
13.631	4.2699	9.18646	70.68266	133.083	77.909548	0.0589	0.3265	0.7276	0.00E+00			
13.721	4.2635	9.19198	70.71331	133.112	77.909551	0.059	0.3326	0.7288	0.00E+00			
13.817	4.2494	9.20014	70.74998	133.079	77.852221	0.0589	0.3204	0.7288	0.00E+00			
13.917	4.2347	9.21234	70.8165	132.803	77.651557	0.0588	0.3174	0.73	0.00E+00			
14.026	4.2193	9.22627	70.89503	132.922	77.680228	0.0588	0.3357	0.7056	0.00E+00			
14.137	4.2058	9.24014	70.97656	132.836	77.594232	0.0588	0.3296	0.7031	0.00E+00			
14.246	4.1991	9.24694	71.01634	133.014	77.680235	0.0589	0.3204	0.7056	0.00E+00			
14.353	4.198	9.25084	71.04417	132.871	77.594236	0.0588	0.3235	0.7031	0.00E+00			
14.466	4.1965	9.25484	71.07207	132.731	77.508237	0.0587	0.3235	0.7263	0.00E+00			
14.582	4.1931	9.25736	71.08509	132.746	77.508239	0.0587	0.3235	0.7276	0.00E+00			
14.683	4.1908	9.26193	71.11585	132.757	77.50824	0.0587	0.3296	0.7276	0.00E+00			
14.766	4.1916	9.26337	71.12856	132.999	77.651574	0.0588	0.3326	0.7276	0.00E+00			
14.856	4.1988	9.27145	71.20394	132.72	77.50824	0.0587	0.3082	0.7288	0.00E+00			
14.954	4.1946	9.27725	71.24064	132.592	77.422242	0.0587	0.3235	0.7288	0.00E+00			
15.066	4.1813	9.28683	71.2894	132.505	77.336247	0.0586	0.3265	0.7288	0.00E+00			
15.186	4.1692	9.30353	71.39488	132.56	77.336251	0.0586	0.3204	0.7263	0.00E+00			
15.303	4.1622	9.31082	71.43773	132.74	77.422252	0.0587	0.3265	0.7263	0.00E+00			
15.424	4.1601	9.31265	71.44782	132.602	77.336255	0.0586	0.3235	0.7276	0.00E+00			
15.536	4.156	9.31301	71.44291	132.473	77.250258	0.0586	0.3357	0.7288	0.00E+00			
15.645	4.1528	9.31976	71.48868	132.635	77.336258	0.0587	0.3174	0.7263	0.00E+00			
15.748	4.1495	9.32495	71.52244	132.65	77.33626	0.0587	0.3204	0.73	0.00E+00			
15.84	4.1479	9.33284	71.57997	132.657	77.336261	0.0587	0.3326	0.7288	0.00E+00			
15.93	4.1447	9.32985	71.55101	132.672	77.336262	0.0587	0.3235	0.7251	0.00E+00			
16.02	4.1416	9.33966	71.62044	132.686	77.336264	0.0587	0.3357	0.7288	0.00E+00			
16.118	4.1373	9.34319	71.63926	132.558	77.250267	0.0586	0.3357	0.73	0.00E+00			
16.219	4.133	9.35174	71.69688	132.578	77.250268	0.0586	0.3204	0.73	0.00E+00			
16.332	4.1305	9.36106	71.76355	132.491	77.192937	0.0586	0.3296	0.7337	0.00E+00			
16.442	4.1289	9.36391	71.78249	132.448	77.164273	0.0585	0.3326	0.7276	0.00E+00			
16.554	4.1279	9.37521	71.86705	132.158	76.992278	0.0584	0.3174	0.7495	0.00E+00			
16.673	4.1255	9.37982	71.898	132.612	77.250274	0.0586	0.3265	0.7471	0.00E+00			
16.785	4.1246	9.3829	71.91994	132.32	77.078278	0.0585	0.3235	0.7495	0.00E+00			
16.887	4.1227	9.39206	71.98652	132.477	77.164277	0.0586	0.3296	0.7507	0.00E+00			
16.972	4.1207	9.39772	72.0261	132.486	77.164278	0.0586	0.3723	0.7459	0.00E+00			
17.059	4.1192	9.40326	72.06569	132.345	77.078281	0.0585	0.3845	0.7446	0.00E+00			
17.157	4.1156	9.41128	72.12032	132.411	77.106949	0.0585	0.3693	0.7471	0.00E+00			
17.265	4.1097	9.41871	72.16608	132.536	77.164283	0.0586	0.3723	0.7495	0.00E+00			
17.367	4.1072	9.42801	72.23267	132.547	77.164285	0.0586	0.3326	0.73	0.00E+00			
17.476	4.1077	9.43308	72.27248	132.25	76.992289	0.0584	0.3265	0.7288	0.00E+00			
17.591	4.107	9.43495	72.28551	132.4	77.078288	0.0585	0.3326	0.7214	0.00E+00			
17.699	4.1035	9.43712	72.29549	132.564	77.164288	0.0586	0.3204	0.7239	0.00E+00			
17.799	4.101	9.44254	72.33224	132.428	77.078291	0.0585	0.3143	0.7263	0.00E+00			
17.887	4.1	9.45146	72.3987	132.334	77.02096	0.0585	0.3296	0.73	0.00E+00			
17.972	4.0998	9.45278	72.40846	132.433	77.078293	0.0585	0.3174	0.7239	0.00E+00			
18.051	4.0998	9.45833	72.45098	132.433	77.078293	0.0585	0.3296	0.7312	0.00E+00			
18.139	4.0984	9.4658	72.50551	132.292	76.992296	0.0585	0.3235	0.708	0.00E+00			
18.236	4.0937	9.47333	72.55416	132.461	77.078296	0.0585	0.3204	0.7092	0.00E+00			
18.335	4.0886	9.48251	72.61477	132.337	76.9923	0.0585	0.3326	0.7031	0.00E+00			
18.427	4.0855	9.48729	72.64548	132.203	76.906304	0.0584	0.3326	0.7092	0.00E+00			
18.513	4.0861	9.49466	72.70298	132.348	76.992302	0.0585	0.3296	0.7263	0.00E+00			
18.602	4.0851	9.49461	72.70086	132.402	77.020969	0.0585	0.3388	0.7288	0.00E+00			
18.691	4.0844	9.49996	72.74049	132.503	77.078302	0.0585	0.3265	0.73	0.00E+00			
18.784	4.0828	9.50477	72.77419	132.363	76.992305	0.0585	0.3235	0.7263	0.00E+00			
18.874	4.0802	9.50905	72.80191	132.375	76.992306	0.0585	0.3326	0.7288	0.00E+00			
18.952	4.0795	9.51243	72.82653	132.378	76.992307	0.0585	0.3265	0.7324	0.00E+00			
19.027	4.0803	9.52012	72.88691	132.374	76.992307	0.0585	0.3235	0.7337	0.00E+00			
19.114	4.08	9.52226	72.90267	132.376	76.992308	0.0585	0.3235	0.7263	0.00E+00			
19.215	4.0786	9.53012	72.96032	132.333	76.963643	0.0585	0.3326	0.7068	0.00E+00			
19.316	4.0768	9.53538	72.99709	132.242	76.906313	0.0584	0.3235	0.7056	0.00E+00			
19.418	4.077	9.53625	73.00404	132.242	76.906314	0.0584	0.3174	0.7068	0.00E+00			
19.506	4.0775	9.5413	73.04367	132.387	76.992312	0.0585	0.3296	0.7056	0.00E+00			
19.589	4.0757	9.54185	73.04448	132.543	77.07831	0.0586	0.3265	0.7263	0.00E+00			
19.674	4.0732	9.54649	73.07513	132.407	76.992314	0.0585	0.3235	0.7239	0.00E+00			
19.774	4.0704	9.55159	73.10892	132.123	76.820321	0.0584	0.3296	0.7251	0.00E+00			
19.89	4.0665	9.56089	73.17269	132.437	76.992317	0.0585	0.3265	0.7263	0.00E+00			
19.992	4.0652	9.55629	73.13489	132.394	76.963652	0.0585	0.3174	0.7227	0.00E+00			
20.07	4.0666	9.55875	73.15653	132.732	77.164314	0.0586	0.3265	0.7349	0.00E+00			
20.15	4.0677	9.56443	73.20206	132.432	76.992319	0.0585	0.3204	0.7276	0.00E+00			
20.238	4.0668	9.57257	73.26258	132.436	76.99232	0.0585	0.3265	0.7288	0.00E+00			
20.336	4.0622	9.57386	73.26353	132.309	76.906324	0.0584	0.3235	0.7251	0.00E+00			
20.438	4.0589	9.58262	73.3242	132.324	76.906325	0.0584	0.3174	0.7251	0.00E+00			
20.545	4.0601	9.5883	73.36998	132.319	76.906326	0.0584	0.3296	0.7288	0.00E+00			
20.638	4.0621	9.58206	73.32614	132.408	76.963658	0.0585	0.3296	0.7263	0.00E+00			
20.717	4.0635	9.58766	73.37165	132.451	76.992324	0.0585	0.3204	0.7507	0.00E+00			
20.807	4.0631	9.58905	73.38148	132.305	76.906327	0.0584	0.3265	0.7483	0.00E+00			
20.926	4.0605	9.59257	73.40353	132.168	76.820331	0.0584	0.3296	0.7471	0.00E+00			
21.057	4.0576	9.59036	73.38092	132.034	76.734336	0.0583	0.3357	0.7422	0.00E+00			
21.192	4.0576	9.59599	73.42401	132.33	76.906331	0.0584	0.3296	0.7276	0.00E+00			
21.307	4.0559	9.60046	73.45497	132.338	76.906332	0.0584	0.3296	0.7288	0.00E+00			
21.393	4.0513	9.60017	73.44387	132.359	76.906334	0.0584	0.3235	0.7288	0.00E+00			
21.472	4.0507	9.60511	73.48045	132.164	76.791672	0.0584	0.3326	0.73	0.00E+00			
21.57	4.0491	9.60992	73.51422	132.072	76.734342	0.0583	0.3204	0.7288	0.00E+00			
21.683	4.0459	9.6175	73.56605	132.383	76.906338	0.0585	0.3204	0.7324	0.00E+00			
21.796	4.0424	9.62126	73.58804	132.251	76.820342	0.0584	0.3265	0.7276	0.00E+00			
21.911	4.0413	9.62598	73.62199	132.256	76.820343	0.0584	0.3265	0.7276	0.00E+00			
22.004	4.0403	9.62714	73.62886	132.261	76.820344	0.0584	0.3265	0.7312	0.00E+00			
22.093	4.0402	9.62727	73.62973	132.113	76.734348	0.0583	0.3296	0.7263	0.00E+00			
22.186	4.0406	9.62807	73.63661	132.259	76.820346	0.0584	0.3235	0.7288	0.00E+00			
22.308	4.0423	9.6321	73.67062	132.202	76.79168	0.0584	0.3265	0.7251	0.00E+00			
22.432	4.042	9.63429	73.68675	132.105	76.73435	0.0583	0.3296	0.7117	0.00E+00			
22.539	4.041	9.63388	73.68182	132.258	76.820348	0.0584	0.3235	0.708	0.00E+00			
22.626	4.0433	9.63302	73.67969	132.247	76.820348	0.0584	0.3265	0.7092	0.00E+00			
22.713	4.0443	9.63171	73.67158	132.094	76.734352	0.0583	0.3235	0.7068	0.00E+00			
22.817	4.043	9.63528	73.69648	132.248	76.820349	0.0584	0.3296	0.7007	0.00E+00			
22.93	4.0414	9.63934	73.72444	132.255	76.820351	0.0584	0.3388	0.7092	0.00E+00			
23.033	4.0406	9.64085	73.7344	132.21	76.791686	0.0584	0.3296	0.7092	0.00E+00			
23.121	4.0426	9.64516	73.77108	132.102	76.734355	0.0583	0.3296	0.7056	0.00E+00			
23.208	4.0451	9.64266	73.757	132.239	76.820352	0.0584	0.3235	0.7092	0.00E+00			
23.299	4.0451	9.64239	73.7549	132.239	76.820352	0.0584	0.3326	0.7056	0.00E+00			
23.413	4.0432	9.64574	73.77691	132.395	76.906351	0.0585	0.3265	0.708	0.00E+00			
23.534	4.0397	9.64993	73.80198	132.116	76.734359	0.0583	0.3296	0.7056	0.00E+00			
23.656	4.0373	9.64989	73.7972	132.274	76.820357	0.0584	0.3265	0.708	0.00E+00			
23.769	4.0339	9.65012	73.79233	132.142	76.734362	0.0583	0.3265	0.7044	0.00E+00			
23.866	4.0308	9.65103	73.79328	132.156	76.734363	0.0583	0.3235	0.7056	0.00E+00			
23.965	4.0298	9.65533	73.82409	132.012	76.648368	0.0583	0.3235	0.7105	0.00E+00			
24.068	4.028	9.65746	73.83704	132.317	76.820362	0.0584	0.3265	0.7092	0.00E+00			
24.179	4.0263	9.6596	73.85007	132.028	76.64837	0.0583	0.3235	0.7056	0.00E+00			
24.279	4.0247	9.66131	73.86	132.332	76.820365	0.0584	0.3265	0.7056	0.00E+00			
24.366	4.025	9.66213	73.86682	132.331	76.820365	0.0584	0.3143	0.7056	0.00E+00			
24.453	4.0279	9.66149	73.86767	132.317	76.820365	0.0584	0.3265	0.7092	0.00E+00			
24.546	4.0296	9.66431	73.89246	132.26	76.7917	0.0584	0.3326	0.7031	0.00E+00			
24.663	4.029	9.66891	73.92644	132.312	76.820366	0.0584	0.3265	0.7105	0.00E+00			
24.786	4.0283	9.66534	73.89779	132.167	76.73437	0.0583	0.3235	0.708	0.00E+00			
24.91	4.0269	9.66275	73.87512	132.026	76.648375	0.0583	0.3265	0.7288	0.00E+00			
25.022	4.0243	9.66626	73.89711	132.482	76.906367	0.0585	0.3326	0.7288	0.00E+00			
25.116	4.022	9.66501	73.88311	132.196	76.734374	0.0583	0.3265	0.73	0.00E+00			
25.201	4.02	9.66407	73.872	132.353	76.820372	0.0584	0.3326	0.73	0.00E+00			
25.302	4.0169	9.66968	73.90881	132.219	76.734377	0.0584	0.3326	0.7044	0.00E+00			
25.404	4.0153	9.67372	73.93668	132.226	76.734378	0.0584	0.3235	0.7068	0.00E+00			
25.511	4.0153	9.67386	73.93773	132.078	76.648382	0.0583	0.3265	0.7117	0.00E+00			
25.595	4.0155	9.67313	73.93257	132.225	76.734379	0.0584	0.3265	0.7019	0.00E+00			
25.67	4.0191	9.67154	73.92734	132.357	76.820376	0.0584	0.3235	0.7251	0.00E+00			
25.756	4.0231	9.6726	73.94311	132.191	76.734379	0.0583	0.3204	0.7276	0.00E+00			
25.878	4.0263	9.67623	73.97715	132.176	76.734379	0.0583	0.3265	0.7239	0.00E+00			
26.013	4.0275	9.67531	73.9725	132.171	76.73438	0.0583	0.3296	0.7251	0.00E+00			
26.151	4.0228	9.6806	74.00371	132.193	76.734382	0.0583	0.3265	0.7276	0.00E+00			
26.255	4.0144	9.67662	73.95695	132.231	76.734385	0.0584	0.3204	0.7276	0.00E+00			
26.345	4.0089	9.6824	73.99068	132.404	76.820383	0.0584	0.3235	0.7276	0.00E+00			
26.432	4.0041	9.6861	74.00945	132.129	76.648392	0.0583	0.3296	0.7263	0.00E+00			
26.531	3.999	9.68714	74.00743	132.054	76.591063	0.0583	0.3235	0.7031	0.00E+00			
26.644	3.9941	9.69205	74.03541	132.323	76.734392	0.0584	0.3235	0.708	0.00E+00			
26.748	3.9918	9.69473	74.05136	132.186	76.648397	0.0583	0.3265	0.7105	0.00E+00			
26.838	3.9921	9.69985	74.09107	132.184	76.648398	0.0583	0.3235	0.7092	0.00E+00			
26.923	3.9912	9.69314	74.03815	132.337	76.734395	0.0584	0.3204	0.6897	0.00E+00			
27.022	3.991	9.69565	74.05704	132.337	76.734396	0.0584	0.3265	0.6836	0.00E+00			
27.148	3.9896	9.69892	74.07918	132.195	76.648401	0.0583	0.3265	0.686	0.00E+00			
27.28	3.9864	9.69559	74.04762	132.21	76.648402	0.0583	0.3296	0.6848	0.00E+00			
27.4	3.9852	9.70193	74.0936	132.364	76.7344	0.0584	0.3265	0.686	0.00E+00			
27.499	3.9845	9.69676	74.05276	132.367	76.734401	0.0584	0.3235	0.6799	0.00E+00			
27.589	3.9834	9.69597	74.04467	132.224	76.648405	0.0583	0.3265	0.6885	0.00E+00			
27.682	3.9832	9.69851	74.06351	132.225	76.648406	0.0583	0.3296	0.6848	0.00E+00			
27.786	3.9833	9.69939	74.0705	131.977	76.50508	0.0582	0.3174	0.6836	0.00E+00			
27.895	3.9848	9.69952	74.07456	132.217	76.648407	0.0583	0.3296	0.6836	0.00E+00			
28.003	3.986	9.70054	74.08457	132.113	76.591077	0.0583	0.3235	0.6873	0.00E+00			
28.093	3.9865	9.69584	74.04962	132.21	76.648408	0.0583	0.3235	0.6824	0.00E+00			
28.178	3.9871	9.69658	74.05642	132.207	76.648409	0.0583	0.3235	0.6873	0.00E+00			
28.282	3.9855	9.69829	74.06641	132.214	76.64841	0.0583	0.3296	0.6885	0.00E+00			
28.404	3.985	9.70209	74.09448	132.216	76.648411	0.0583	0.3357	0.6897	0.00E+00			
28.529	3.9828	9.70047	74.07779	132.226	76.648412	0.0583	0.3296	0.686	0.00E+00			
28.639	3.9818	9.69735	74.05198	132.231	76.648413	0.0583	0.3235	0.7044	0.00E+00			
28.738	3.9838	9.69656	74.04996	132.222	76.648414	0.0583	0.3326	0.708	0.00E+00			
28.831	3.9842	9.69737	74.05685	132.22	76.648414	0.0583	0.3235	0.708	0.00E+00			
28.927	3.9828	9.69785	74.05779	132.128	76.591084	0.0583	0.3296	0.7068	0.00E+00			
29.028	3.9803	9.69899	74.06177	132.238	76.648416	0.0583	0.3265	0.6873	0.00E+00			
29.131	3.9789	9.69989	74.06577	132.393	76.734414	0.0584	0.3296	0.6897	0.00E+00			
29.231	3.9777	9.7054	74.10558	132.25	76.648419	0.0583	0.3296	0.686	0.00E+00			
29.317	3.9769	9.69946	74.05863	132.253	76.648419	0.0583	0.3265	0.686	0.00E+00			
29.411	3.9766	9.70357	74.08942	132.156	76.591089	0.0583	0.3265	0.7056	0.00E+00			
29.519	3.9746	9.70382	74.0875	132.264	76.648421	0.0583	0.3174	0.7044	0.00E+00			
29.635	3.9734	9.70701	74.10954	132.269	76.648423	0.0583	0.3265	0.7105	0.00E+00			
29.754	3.9729	9.70418	74.08682	132.173	76.591093	0.0583	0.3265	0.7117	0.00E+00			
29.863	3.9714	9.70626	74.09983	132.18	76.591094	0.0583	0.3265	0.686	0.00E+00			
29.973	3.9704	9.70977	74.12481	132.431	76.734422	0.0584	0.3204	0.6836	0.00E+00			
30.084	3.9711	9.70387	74.08109	132.181	76.591096	0.0583	0.3296	0.6873	0.00E+00			
30.192	3.9713	9.70828	74.11501	132.18	76.591096	0.0583	0.3265	0.686	0.00E+00			
30.298	3.9727	9.70688	74.10709	132.273	76.648428	0.0583	0.3265	0.7044	0.00E+00			
30.387	3.9732	9.70882	74.1229	132.419	76.734425	0.0584	0.3296	0.7068	0.00E+00			
30.468	3.9742	9.70555	74.09979	132.266	76.648428	0.0583	0.3204	0.708	0.00E+00			
30.551	3.9732	9.70433	74.08866	132.27	76.648429	0.0583	0.3235	0.708	0.00E+00			
30.653	3.9713	9.70613	74.09862	132.18	76.5911	0.0583	0.3357	0.6836	0.00E+00			
30.77	3.9704	9.71041	74.12964	132.283	76.648431	0.0583	0.3174	0.6848	0.00E+00			
30.892	3.9708	9.70813	74.11291	132.182	76.591101	0.0583	0.3174	0.6873	0.00E+00			
31.008	3.9703	9.70761	74.10808	132.432	76.73443	0.0584	0.3174	0.686	0.00E+00			
31.109	3.9702	9.70544	74.09114	132.185	76.591103	0.0583	0.3326	0.708	0.00E+00			
31.201	3.9701	9.70752	74.10699	132.284	76.648435	0.0583	0.3204	0.7092	0.00E+00			
31.306	3.9692	9.70439	74.08112	132.19	76.591105	0.0583	0.3326	0.7056	0.00E+00			
31.416	3.9685	9.70391	74.07622	132.292	76.648437	0.0583	0.3296	0.708	0.00E+00			
31.521	3.9688	9.70826	74.11012	132.191	76.591106	0.0583	0.3174	0.6873	0.00E+00			
31.62	3.9704	9.70526	74.09018	132.184	76.591107	0.0583	0.3265	0.6848	0.00E+00			
31.709	3.97	9.70938	74.12093	132.434	76.734435	0.0584	0.3296	0.6934	0.00E+00			
31.803	3.9706	9.70466	74.08599	132.282	76.648439	0.0583	0.3204	0.6848	0.00E+00			
31.903	3.9694	9.70939	74.11984	132.189	76.591109	0.0583	0.3235	0.7068	0.00E+00			
32.023	3.9693	9.71233	74.14194	132.189	76.59111	0.0583	0.3265	0.7056	0.00E+00			
32.143	3.9696	9.70808	74.11025	132.435	76.734438	0.0584	0.3174	0.708	0.00E+00			
32.264	3.97	9.71323	74.15028	132.285	76.648442	0.0583	0.3326	0.7092	0.00E+00			
32.357	3.9695	9.70488	74.08546	132.189	76.591112	0.0583	0.3265	0.708	0.00E+00			
32.443	3.9694	9.71087	74.13112	132.535	76.791772	0.0585	0.3265	0.7068	0.00E+00			
32.533	3.9686	9.70806	74.1081	132.192	76.591114	0.0583	0.3357	0.7056	0.00E+00			
32.634	3.9684	9.70707	74.10013	132.193	76.591115	0.0583	0.3265	0.7092	0.00E+00			
32.74	3.9675	9.71135	74.13105	132.297	76.648446	0.0583	0.3296	0.6885	0.00E+00			
32.844	3.9685	9.71044	74.12609	132.292	76.648447	0.0583	0.3265	0.686	0.00E+00			
32.937	3.969	9.70848	74.11206	132.191	76.591117	0.0583	0.3204	0.6848	0.00E+00			
33.036	3.9696	9.7104	74.12797	132.287	76.648448	0.0583	0.3296	0.6873	0.00E+00			
33.144	3.9694	9.70512	74.0872	132.189	76.591118	0.0583	0.3204	0.6848	0.00E+00			
33.26	3.9696	9.70991	74.12419	132.287	76.64845	0.0583	0.3326	0.6885	0.00E+00			
33.379	3.9708	9.70937	74.12238	132.182	76.591119	0.0583	0.3265	0.6836	0.00E+00			
33.488	3.9711	9.70511	74.09057	132.28	76.648451	0.0583	0.3143	0.6836	0.00E+00			
33.586	3.9715	9.70984	74.12739	132.278	76.648451	0.0583	0.3174	0.7092	0.00E+00			
33.678	3.9718	9.70403	74.08347	132.277	76.648452	0.0583	0.3296	0.708	0.00E+00			
33.765	3.9722	9.7048	74.0903	132.275	76.648453	0.0583	0.3204	0.7056	0.00E+00			
33.861	3.9726	9.70599	74.10021	132.421	76.73445	0.0584	0.3265	0.7105	0.00E+00			
33.953	3.9732	9.70519	74.09513	132.171	76.591123	0.0583	0.3357	0.6824	0.00E+00			
34.037	3.9735	9.70522	74.09596	132.269	76.648454	0.0583	0.3326	0.6848	0.00E+00			
34.125	3.9745	9.70509	74.09682	132.166	76.591124	0.0583	0.3326	0.6873	0.00E+00			
34.219	3.9732	9.70278	74.07681	132.27	76.648456	0.0583	0.3174	0.6885	0.00E+00			
34.334	3.9726	9.70386	74.08392	132.273	76.648457	0.0583	0.3388	0.7068	0.00E+00			
34.463	3.9722	9.70493	74.09117	132.275	76.648458	0.0583	0.3296	0.7056	0.00E+00			
34.581	3.9715	9.70488	74.08933	132.031	76.505132	0.0582	0.3265	0.7056	0.00E+00			
34.688	3.9711	9.70626	74.09936	132.28	76.648459	0.0583	0.3265	0.7068	0.00E+00			
34.782	3.971	9.70368	74.07935	132.28	76.64846	0.0583	0.3326	0.6836	0.00E+00			
34.881	3.97	9.70366	74.07733	132.285	76.648461	0.0583	0.3204	0.6824	0.00E+00			
34.984	3.9687	9.7057	74.0903	132.439	76.734459	0.0584	0.3326	0.686	0.00E+00			
35.082	3.9693	9.70645	74.09724	132.288	76.648463	0.0583	0.3296	0.6836	0.00E+00			
35.176	3.97	9.70404	74.08023	132.285	76.648463	0.0583	0.3235	0.7068	0.00E+00			
35.257	3.9711	9.69996	74.05112	132.181	76.591133	0.0583	0.3265	0.708	0.00E+00			
35.345	3.972	9.70219	74.06992	132.573	76.820458	0.0585	0.3357	0.7117	0.00E+00			
35.453	3.9706	9.70739	74.10685	132.183	76.591134	0.0583	0.3143	0.7044	0.00E+00			
35.573	3.9702	9.70373	74.07814	132.433	76.734463	0.0584	0.3265	0.7068	0.00E+00			
35.699	3.9694	9.70097	74.05546	132.189	76.591136	0.0583	0.3204	0.7117	0.00E+00			
35.811	3.9687	9.70127	74.05656	132.291	76.648468	0.0583	0.3235	0.708	0.00E+00			
35.904	3.9692	9.7001	74.0485	132.289	76.648469	0.0583	0.3265	0.7092	0.00E+00			
36.001	3.9684	9.70198	74.0614	132.441	76.734466	0.0584	0.3235	0.6873	0.00E+00			
36.097	3.967	9.70247	74.06235	132.299	76.648471	0.0583	0.3235	0.686	0.00E+00			
36.198	3.9658	9.70133	74.05139	132.453	76.734468	0.0584	0.3265	0.6836	0.00E+00			
36.293	3.9648	9.70054	74.04334	132.21	76.591142	0.0583	0.3143	0.6897	0.00E+00			
36.379	3.9634	9.69983	74.03522	132.216	76.591143	0.0583	0.3235	0.6909	0.00E+00			
36.465	3.9621	9.70106	74.04204	132.321	76.648475	0.0583	0.3143	0.6824	0.00E+00			
36.558	3.9615	9.70094	74.03996	132.472	76.734472	0.0584	0.3204	0.6873	0.00E+00			
36.675	3.9607	9.70208	74.04709	132.476	76.734473	0.0584	0.3296	0.6824	0.00E+00			
36.802	3.9601	9.70279	74.05132	132.33	76.648477	0.0584	0.3265	0.6812	0.00E+00			
36.925	3.9607	9.70163	74.04356	132.229	76.591147	0.0583	0.3296	0.6885	0.00E+00			
37.036	3.961	9.69932	74.0267	132.326	76.648479	0.0584	0.3235	0.686	0.00E+00			
37.127	3.961	9.69514	73.99471	132.079	76.505153	0.0582	0.3296	0.686	0.00E+00			
37.224	3.9608	9.69924	74.02556	132.327	76.64848	0.0584	0.3235	0.6812	0.00E+00			
37.326	3.96	9.69761	74.01161	132.628	76.820475	0.0585	0.3235	0.6824	0.00E+00			
37.425	3.9604	9.70039	74.03351	132.23	76.591151	0.0583	0.3235	0.6873	0.00E+00			
37.516	3.9611	9.69639	74.0045	132.474	76.734479	0.0584	0.3204	0.686	0.00E+00			
37.602	3.962	9.69313	73.98142	132.321	76.648483	0.0583	0.3174	0.6873	0.00E+00			
37.705	3.9624	9.69356	73.98542	132.32	76.648483	0.0583	0.3265	0.6848	0.00E+00			
37.82	3.9619	9.69539	73.9985	132.47	76.734481	0.0584	0.3235	0.6836	0.00E+00			
37.938	3.9628	9.69023	73.96078	132.318	76.648485	0.0583	0.3265	0.6885	0.00E+00			
38.05	3.9627	9.69159	73.97085	132.319	76.648486	0.0583	0.3174	0.6848	0.00E+00			
38.153	3.9615	9.69201	73.97186	132.472	76.734483	0.0584	0.3174	0.686	0.00E+00			
38.249	3.9606	9.69238	73.9728	132.229	76.591157	0.0583	0.3204	0.6873	0.00E+00			
38.333	3.96	9.68833	73.94072	132.331	76.648488	0.0584	0.3204	0.6873	0.00E+00			
38.419	3.9599	9.68925	73.94755	132.48	76.734486	0.0584	0.3235	0.6873	0.00E+00			
38.509	3.9531	9.69306	73.96338	132.363	76.648491	0.0584	0.3326	0.6836	0.00E+00			
38.613	3.9345	9.70145	73.99132	132.348	76.591166	0.0583	0.3174	0.6909	0.00E+00			
38.721	3.9155	9.70761	74.00135	132.435	76.591171	0.0584	0.3235	0.686	0.00E+00			
38.824	3.9028	9.70982	73.99339	132.494	76.591175	0.0584	0.3235	0.6445	0.00E+00			
38.929	3.892	9.7135	74.00039	132.394	76.505183	0.0583	0.3235	0.6409	0.00E+00			
39.032	3.8841	9.71525	73.99842	132.43	76.505185	0.0583	0.3326	0.6433	0.00E+00			
39.14	3.8775	9.72022	74.0234	132.61	76.591184	0.0584	0.3235	0.6445	0.00E+00			
39.243	3.8732	9.71674	73.98852	132.48	76.50519	0.0584	0.3265	0.647	0.00E+00			
39.337	3.8717	9.71842	73.99842	132.636	76.591187	0.0584	0.3265	0.6445	0.00E+00			
39.421	3.8702	9.71617	73.9783	132.743	76.648519	0.0585	0.3265	0.6433	0.00E+00			
39.504	3.8695	9.72039	74.00902	132.647	76.591189	0.0584	0.3235	0.6433	0.00E+00			
39.584	3.8677	9.71583	73.97092	132.655	76.59119	0.0584	0.3357	0.6421	0.00E+00			
39.677	3.8636	9.72171	74.00772	132.524	76.505195	0.0584	0.3296	0.6482	0.00E+00			
39.788	3.8629	9.72009	73.99385	132.528	76.505196	0.0584	0.3174	0.6458	0.00E+00			
39.908	3.8679	9.72132	74.01298	132.356	76.4192	0.0583	0.3296	0.6458	0.00E+00			
40.026	3.8689	9.71728	73.98422	132.649	76.591192	0.0584	0.3204	0.647	0.00E+00			
40.131	3.8659	9.71583	73.96731	132.514	76.505198	0.0584	0.3357	0.6433	0.00E+00			
40.236	3.8618	9.71898	73.98328	132.682	76.591196	0.0584	0.3174	0.6458	0.00E+00			
40.342	3.8584	9.71565	73.95142	132.797	76.648528	0.0585	0.3204	0.6421	0.00E+00			
40.437	3.8559	9.71444	73.93739	132.56	76.505203	0.0584	0.3204	0.6043	0.00E+00			
40.516	3.8534	9.71676	73.95013	132.721	76.5912	0.0584	0.3388	0.6043	0.00E+00			
40.597	3.8522	9.7152	73.93596	132.726	76.591201	0.0584	0.3174	0.6055	0.00E+00			
40.681	3.8516	9.71627	73.94278	132.58	76.505205	0.0584	0.3174	0.6006	0.00E+00			
40.778	3.8503	9.71633	73.94073	132.437	76.419211	0.0583	0.3235	0.6445	0.00E+00			
40.89	3.8484	9.71578	73.93286	132.744	76.591204	0.0585	0.3296	0.6433	0.00E+00			
41.006	3.8481	9.716	73.93399	132.745	76.591205	0.0585	0.3296	0.647	0.00E+00			
41.12	3.8481	9.71928	73.95903	132.745	76.591205	0.0585	0.3296	0.6458	0.00E+00			
41.234	3.8478	9.71596	73.93323	132.746	76.591206	0.0585	0.3204	0.6238	0.00E+00			
41.347	3.8469	9.71044	73.88946	132.75	76.591207	0.0585	0.3265	0.625	0.00E+00			
41.463	3.8455	9.71528	73.9235	132.608	76.505213	0.0584	0.3265	0.6238	0.00E+00			
41.575	3.8449	9.71245	73.90067	132.462	76.419218	0.0583	0.3235	0.625	0.00E+00			
41.67	3.8438	9.7093	73.87466	132.616	76.505214	0.0584	0.3296	0.6238	0.00E+00			
41.762	3.8437	9.70985	73.87856	132.616	76.505215	0.0584	0.3265	0.6262	0.00E+00			
41.86	3.8429	9.70782	73.86156	132.471	76.41922	0.0583	0.3235	0.6262	0.00E+00			
41.958	3.8418	9.71373	73.90441	132.774	76.591213	0.0585	0.3235	0.625	0.00E+00			
42.062	3.8401	9.70958	73.86953	132.484	76.419222	0.0583	0.3265	0.6213	0.00E+00			
42.17	3.8393	9.70992	73.87058	132.636	76.505219	0.0584	0.3296	0.6213	0.00E+00			
42.278	3.8404	9.709	73.86565	132.631	76.50522	0.0584	0.3326	0.6213	0.00E+00			
42.387	3.8418	9.71309	73.89964	132.774	76.591216	0.0585	0.3235	0.6262	0.00E+00			
42.494	3.8426	9.70674	73.8528	132.472	76.419225	0.0583	0.3235	0.6238	0.00E+00			
42.593	3.8421	9.70739	73.85676	132.474	76.419226	0.0583	0.3265	0.625	0.00E+00			
42.689	3.8409	9.70545	73.83974	132.778	76.591219	0.0585	0.3326	0.625	0.00E+00			
42.788	3.8373	9.70767	73.84969	132.645	76.505224	0.0584	0.3388	0.6275	0.00E+00			
42.881	3.8355	9.70826	73.8506	132.654	76.505225	0.0584	0.3296	0.6055	0.00E+00			
42.972	3.8343	9.70828	73.8485	132.659	76.505226	0.0584	0.3204	0.6055	0.00E+00			
43.072	3.8341	9.70767	73.8435	132.809	76.591223	0.0585	0.3235	0.6079	0.00E+00			
43.183	3.835	9.708	73.84757	132.656	76.505227	0.0584	0.3235	0.6018	0.00E+00			
43.29	3.8362	9.70665	73.83964	132.651	76.505228	0.0584	0.3296	0.6238	0.00E+00			
43.393	3.8363	9.70558	73.83167	132.65	76.505229	0.0584	0.3296	0.6262	0.00E+00			
43.49	3.8373	9.70464	73.82663	132.645	76.505229	0.0584	0.3235	0.6238	0.00E+00			
43.592	3.8375	9.70513	73.83062	132.496	76.419234	0.0583	0.3265	0.6213	0.00E+00			
43.697	3.8376	9.70326	73.81668	132.893	76.648558	0.0585	0.3235	0.6213	0.00E+00			
43.801	3.8379	9.70412	73.82368	132.643	76.505231	0.0584	0.3265	0.625	0.00E+00			
43.893	3.8377	9.70153	73.80364	132.644	76.505232	0.0584	0.3296	0.6213	0.00E+00			
43.98	3.8378	9.70239	73.81047	132.792	76.591229	0.0585	0.3235	0.6238	0.00E+00			
44.07	3.8374	9.69829	73.77842	132.794	76.591229	0.0585	0.3235	0.6213	0.00E+00			
44.163	3.8379	9.69986	73.79131	132.494	76.419238	0.0583	0.3204	0.625	0.00E+00			
44.27	3.8381	9.70309	73.81629	132.493	76.419239	0.0583	0.3174	0.6201	0.00E+00			
44.382	3.8377	9.70099	73.79943	132.644	76.505235	0.0584	0.3296	0.6262	0.00E+00			
44.496	3.8368	9.70057	73.79456	132.648	76.505236	0.0584	0.3357	0.6238	0.00E+00			
44.59	3.835	9.70037	73.78949	132.805	76.591234	0.0585	0.3204	0.6262	0.00E+00			
44.686	3.8333	9.69933	73.77846	132.912	76.648566	0.0585	0.3296	0.6213	0.00E+00			
44.783	3.8323	9.70366	73.80933	132.669	76.50524	0.0584	0.3204	0.6238	0.00E+00			
44.883	3.8306	9.70186	73.79235	132.527	76.419245	0.0583	0.3296	0.6238	0.00E+00			
44.979	3.8303	9.70246	73.79628	132.827	76.591238	0.0585	0.3235	0.6213	0.00E+00			
45.071	3.831	9.69765	73.76126	132.923	76.648569	0.0585	0.3326	0.6262	0.00E+00			
45.167	3.8328	9.69734	73.7622	132.666	76.505242	0.0584	0.3204	0.6238	0.00E+00			
45.259	3.8339	9.69639	73.75711	132.661	76.505243	0.0584	0.3174	0.6213	0.00E+00			
45.364	3.8343	9.69522	73.74915	132.659	76.505243	0.0584	0.3235	0.6213	0.00E+00			
45.479	3.8347	9.69566	73.75327	132.508	76.419248	0.0583	0.3235	0.6213	0.00E+00			
45.592	3.8347	9.697	73.76336	132.658	76.505245	0.0584	0.3204	0.6238	0.00E+00			
45.705	3.8342	9.69531	73.74949	132.66	76.505246	0.0584	0.3265	0.6043	0.00E+00			
45.812	3.8338	9.69317	73.73257	132.811	76.591243	0.0585	0.3265	0.6018	0.00E+00			
45.903	3.833	9.69507	73.74544	132.665	76.505248	0.0584	0.3204	0.6043	0.00E+00			
45.985	3.8326	9.69016	73.70732	132.816	76.591244	0.0585	0.3296	0.6018	0.00E+00			
46.074	3.8316	9.6921	73.72016	132.672	76.505249	0.0584	0.3326	0.6006	0.00E+00			
46.161	3.8308	9.69479	73.73897	132.526	76.419254	0.0583	0.3265	0.6018	0.00E+00			
46.253	3.8297	9.69048	73.70395	132.681	76.505251	0.0584	0.3296	0.6043	0.00E+00			
46.352	3.8272	9.69321	73.71988	132.692	76.505252	0.0584	0.3265	0.5982	0.00E+00			
46.454	3.8259	9.69365	73.72088	132.847	76.591249	0.0585	0.3296	0.6018	0.00E+00			
46.566	3.8251	9.69559	73.73395	132.851	76.59125	0.0585	0.3235	0.6018	0.00E+00			
46.673	3.8239	9.69485	73.72601	132.707	76.505255	0.0584	0.3296	0.6018	0.00E+00			
46.78	3.8234	9.69589	73.73305	132.709	76.505256	0.0584	0.3235	0.6018	0.00E+00			
46.886	3.8223	9.69001	73.68617	132.864	76.591253	0.0585	0.3326	0.6262	0.00E+00			
46.987	3.8215	9.69114	73.69315	132.569	76.419262	0.0583	0.3235	0.6213	0.00E+00			
47.087	3.8206	9.6903	73.68514	132.871	76.591255	0.0585	0.3388	0.625	0.00E+00			
47.18	3.8196	9.68833	73.66808	132.727	76.50526	0.0584	0.3235	0.6177	0.00E+00			
47.267	3.8179	9.69163	73.68989	132.735	76.505261	0.0584	0.3174	0.5823	0.00E+00			
47.349	3.8163	9.69095	73.68171	132.991	76.648589	0.0585	0.3296	0.5823	0.00E+00			
47.439	3.8156	9.69322	73.69756	132.746	76.505263	0.0584	0.3204	0.5859	0.00E+00			
47.545	3.814	9.69023	73.67164	132.753	76.505264	0.0584	0.3174	0.5811	0.00E+00			
47.658	3.8123	9.69433	73.69969	132.91	76.591261	0.0585	0.3204	0.6018	0.00E+00			
47.768	3.8106	9.69178	73.67681	132.769	76.505266	0.0584	0.3235	0.6018	0.00E+00			
47.862	3.8095	9.69178	73.67474	132.774	76.505267	0.0584	0.3296	0.6055	0.00E+00			
47.946	3.8091	9.68766	73.64262	132.776	76.505268	0.0584	0.3265	0.6055	0.00E+00			
48.031	3.8087	9.68787	73.64344	132.628	76.419273	0.0584	0.3235	0.6043	0.00E+00			
48.13	3.8067	9.69164	73.66836	132.936	76.591266	0.0585	0.3235	0.6018	0.00E+00			
48.226	3.8059	9.6904	73.65732	132.939	76.591267	0.0585	0.3204	0.6006	0.00E+00			
48.316	3.8053	9.68399	73.60729	132.793	76.505272	0.0584	0.3326	0.6018	0.00E+00			
48.398	3.8059	9.68707	73.63204	133.039	76.648599	0.0585	0.3204	0.6006	0.00E+00			
48.484	3.8055	9.68572	73.62091	132.792	76.505273	0.0584	0.3082	0.6018	0.00E+00			
48.577	3.8054	9.68823	73.63978	132.942	76.59127	0.0585	0.3174	0.5982	0.00E+00			
48.692	3.8049	9.68141	73.587	132.795	76.505275	0.0584	0.3296	0.6018	0.00E+00			
48.81	3.805	9.68824	73.63906	132.944	76.591271	0.0585	0.3235	0.6055	0.00E+00			
48.919	3.8044	9.68261	73.5952	132.797	76.505276	0.0584	0.3326	0.6055	0.00E+00			
49.019	3.804	9.68364	73.60217	132.65	76.419281	0.0584	0.3357	0.6018	0.00E+00			
49.11	3.8036	9.67834	73.56112	132.95	76.591274	0.0585	0.3204	0.6018	0.00E+00			
49.209	3.8034	9.68285	73.59503	133.051	76.648606	0.0586	0.3143	0.6043	0.00E+00			
49.306	3.8025	9.67809	73.55704	132.806	76.50528	0.0584	0.3204	0.6043	0.00E+00			
49.401	3.8028	9.67812	73.55797	132.804	76.50528	0.0584	0.3235	0.6006	0.00E+00			
49.482	3.8035	9.67687	73.54977	132.951	76.591277	0.0585	0.3174	0.6043	0.00E+00			
49.563	3.8043	9.67677	73.55056	132.947	76.591277	0.0585	0.3326	0.5811	0.00E+00			
49.66	3.803	9.67684	73.54851	132.804	76.505282	0.0584	0.3235	0.5786	0.00E+00			
49.773	3.8025	9.6771	73.54961	132.806	76.505283	0.0584	0.3204	0.5859	0.00E+00			
49.889	3.8015	9.67513	73.53277	132.81	76.505284	0.0584	0.3204	0.5823	0.00E+00			
50.004	3.8014	9.67412	73.5249	132.811	76.505285	0.0584	0.3235	0.6018	0.00E+00			
50.105	3.8013	9.67311	73.51689	132.662	76.41929	0.0584	0.3235	0.6055	0.00E+00			
50.191	3.8013	9.66965	73.49077	132.961	76.591282	0.0585	0.3357	0.6018	0.00E+00			
50.272	3.8014	9.66856	73.48258	132.96	76.591283	0.0585	0.3235	0.5982	0.00E+00			
50.361	3.8016	9.67218	73.51041	132.81	76.505287	0.0584	0.3357	0.5811	0.00E+00			
50.454	3.8005	9.66943	73.48734	132.666	76.419292	0.0584	0.3235	0.5811	0.00E+00			
50.545	3.8003	9.668	73.47625	133.065	76.648616	0.0586	0.3204	0.5786	0.00E+00			
50.632	3.8003	9.66535	73.45613	132.965	76.591286	0.0585	0.3265	0.5786	0.00E+00			
50.722	3.8006	9.66776	73.47498	132.815	76.50529	0.0584	0.3204	0.5823	0.00E+00			
50.822	3.8001	9.66684	73.46696	132.668	76.419295	0.0584	0.3235	0.5859	0.00E+00			
50.921	3.8	9.66304	73.43797	132.967	76.591288	0.0585	0.3204	0.5823	0.00E+00			
51.03	3.7994	9.6673	73.46898	132.82	76.505293	0.0584	0.3235	0.5859	0.00E+00			
51.148	3.7994	9.66193	73.42819	132.671	76.419298	0.0584	0.3235	0.5847	0.00E+00			
51.261	3.7993	9.66484	73.45026	132.821	76.505294	0.0584	0.3357	0.5823	0.00E+00			
51.353	3.7999	9.65613	73.38525	132.967	76.591291	0.0585	0.3296	0.5811	0.00E+00			
51.439	3.7997	9.66104	73.42203	132.67	76.4193	0.0584	0.3204	0.5786	0.00E+00			
51.526	3.7989	9.657	73.38992	133.071	76.648624	0.0586	0.3204	0.5823	0.00E+00			
51.615	3.7985	9.65604	73.3818	132.974	76.591293	0.0585	0.3265	0.5786	0.00E+00			
51.708	3.799	9.65879	73.40367	132.822	76.505298	0.0584	0.3204	0.5786	0.00E+00			
51.799	3.7992	9.65612	73.38359	132.672	76.419302	0.0584	0.3235	0.5847	0.00E+00			
51.9	3.8002	9.6548	73.37558	132.667	76.419303	0.0584	0.3265	0.6006	0.00E+00			
52.002	3.7992	9.65243	73.3556	132.821	76.5053	0.0584	0.3265	0.6043	0.00E+00			
52.108	3.7995	9.65603	73.38359	132.82	76.5053	0.0584	0.3388	0.6055	0.00E+00			
52.219	3.7994	9.65264	73.3577	132.97	76.591297	0.0585	0.3296	0.6043	0.00E+00			
52.332	3.7996	9.64959	73.33483	132.82	76.505302	0.0584	0.3754	0.5823	0.00E+00			
52.442	3.7985	9.65117	73.34489	133.073	76.64863	0.0586	0.3662	0.5786	0.00E+00			
52.542	3.7982	9.64902	73.32788	132.975	76.5913	0.0585	0.3754	0.5823	0.00E+00			
52.623	3.7971	9.64823	73.31968	132.831	76.505305	0.0584	0.3754	0.5823	0.00E+00			
52.702	3.7972	9.64594	73.30247	132.98	76.591301	0.0585	0.3723	0.5786	0.00E+00			
52.783	3.7968	9.64534	73.29726	132.982	76.591302	0.0585	0.3815	0.5823	0.00E+00			
52.868	3.7963	9.64519	73.29509	132.984	76.591303	0.0585	0.3693	0.5823	0.00E+00			
52.966	3.7963	9.64532	73.29604	132.835	76.505307	0.0584	0.3784	0.5823	0.00E+00			
53.083	3.796	9.6483	73.31816	132.985	76.591304	0.0585	0.3326	0.5786	0.00E+00			
53.202	3.7964	9.64362	73.28335	132.983	76.591305	0.0585	0.3235	0.5847	0.00E+00			
53.323	3.7959	9.64468	73.29051	132.836	76.50531	0.0584	0.3265	0.5859	0.00E+00			
53.436	3.7958	9.64091	73.26164	132.986	76.591307	0.0585	0.3265	0.5786	0.00E+00			
53.542	3.7954	9.64076	73.25968	132.689	76.419316	0.0584	0.3357	0.5823	0.00E+00			
53.641	3.7948	9.63946	73.24865	132.991	76.591309	0.0585	0.3326	0.5859	0.00E+00			
53.737	3.7948	9.63958	73.24958	132.841	76.505313	0.0584	0.3326	0.5859	0.00E+00			
53.827	3.795	9.63649	73.22648	132.99	76.59131	0.0585	0.3204	0.5823	0.00E+00			
53.903	3.7952	9.63811	73.23921	132.839	76.505314	0.0584	0.3235	0.5823	0.00E+00			
53.975	3.7956	9.63573	73.22192	132.987	76.591311	0.0585	0.3296	0.5823	0.00E+00			
54.055	3.7963	9.64041	73.25867	132.984	76.591311	0.0585	0.3113	0.5823	0.00E+00			
54.16	3.7959	9.63669	73.22971	132.986	76.591312	0.0585	0.3326	0.5823	0.00E+00			
54.286	3.7958	9.63844	73.24292	132.986	76.591313	0.0585	0.3296	0.6006	0.00E+00			
54.413	3.7954	9.63436	73.21119	133.087	76.648645	0.0586	0.3265	0.6006	0.00E+00			
54.534	3.7954	9.63572	73.22135	132.839	76.505319	0.0584	0.3265	0.6055	0.00E+00			
54.631	3.7959	9.6294	73.17433	132.986	76.591316	0.0585	0.3235	0.6055	0.00E+00			
54.717	3.7956	9.63117	73.18715	132.838	76.50532	0.0584	0.3235	0.5823	0.00E+00			
54.797	3.7946	9.63192	73.19093	132.843	76.505321	0.0584	0.3235	0.5823	0.00E+00			
54.883	3.7943	9.63171	73.18876	132.993	76.591318	0.0585	0.3174	0.5823	0.00E+00			
54.97	3.7938	9.62839	73.16263	132.846	76.505322	0.0584	0.3326	0.5786	0.00E+00			
55.055	3.7939	9.63045	73.17844	132.846	76.505323	0.0584	0.3265	0.5591	0.00E+00			
55.133	3.7943	9.62846	73.16421	133.093	76.648651	0.0586	0.3296	0.5591	0.00E+00			
55.222	3.7945	9.6234	73.12611	132.992	76.59132	0.0585	0.3235	0.5652	0.00E+00			
55.339	3.7954	9.62727	73.15721	132.839	76.505325	0.0584	0.3265	0.5628	0.00E+00			
55.463	3.7947	9.62721	73.15541	132.991	76.591322	0.0585	0.3143	0.5823	0.00E+00			
55.576	3.7946	9.6266	73.15052	132.693	76.419331	0.0584	0.3326	0.5786	0.00E+00			
55.676	3.7947	9.62196	73.11551	132.991	76.591323	0.0585	0.3296	0.5823	0.00E+00			
55.75	3.7941	9.62418	73.13122	132.994	76.591324	0.0585	0.3388	0.5859	0.00E+00			
55.817	3.794	9.61878	73.0899	132.995	76.591325	0.0585	0.3235	0.5847	0.00E+00			
55.898	3.7941	9.62002	73.09968	133.094	76.648656	0.0586	0.3265	0.5823	0.00E+00			
55.987	3.7934	9.62073	73.10354	133.097	76.648657	0.0586	0.3296	0.5859	0.00E+00			
56.084	3.7934	9.61809	73.08349	132.998	76.591327	0.0585	0.3296	0.5823	0.00E+00			
56.165	3.7946	9.6171	73.07828	132.992	76.591327	0.0585	0.3326	0.5823	0.00E+00			
56.242	3.7957	9.61414	73.05805	132.837	76.505331	0.0584	0.3296	0.5786	0.00E+00			
56.338	3.7968	9.61557	73.07096	133.081	76.648659	0.0586	0.3265	0.5823	0.00E+00			
56.453	3.7972	9.61325	73.05409	132.98	76.591328	0.0585	0.3204	0.5859	0.00E+00			
56.582	3.7982	9.6108	73.03735	132.677	76.419337	0.0584	0.3296	0.5823	0.00E+00			
56.696	3.7983	9.60894	73.02346	132.825	76.505334	0.0584	0.3265	0.5786	0.00E+00			
56.792	3.7981	9.60872	73.02139	132.826	76.505334	0.0584	0.3265	0.5811	0.00E+00			
56.871	3.7972	9.60628	73.00117	132.98	76.591331	0.0585	0.3204	0.5823	0.00E+00			
56.938	3.7961	9.60626	72.99882	133.085	76.648663	0.0586	0.3296	0.5628	0.00E+00			
57.016	3.7954	9.60732	73.00556	132.839	76.505337	0.0584	0.3235	0.5628	0.00E+00			
57.105	3.7943	9.60415	72.97944	132.993	76.591334	0.0585	0.3296	0.5615	0.00E+00			
57.208	3.7938	9.6052	72.98644	132.995	76.591335	0.0585	0.3326	0.5628	0.00E+00			
57.306	3.7942	9.60602	72.99338	132.994	76.591335	0.0585	0.3296	0.5847	0.00E+00			
57.394	3.7971	9.60144	72.96425	132.98	76.591335	0.0585	0.3235	0.5811	0.00E+00			
57.487	3.799	9.6015	72.96814	132.822	76.505339	0.0584	0.3204	0.5786	0.00E+00			
57.596	3.8009	9.59917	72.95421	132.664	76.419344	0.0584	0.3235	0.5786	0.00E+00			
57.71	3.8027	9.59727	72.94331	132.954	76.591336	0.0585	0.3296	0.5823	0.00E+00			
57.812	3.803	9.59062	72.89332	133.052	76.648668	0.0585	0.3326	0.5896	0.00E+00			
57.899	3.8028	9.59513	72.92715	132.954	76.591337	0.0585	0.3204	0.5823	0.00E+00			
57.972	3.8023	9.59023	72.88887	132.956	76.591338	0.0585	0.3326	0.5786	0.00E+00			
58.046	3.8028	9.58782	72.87159	132.805	76.505342	0.0584	0.3265	0.5823	0.00E+00			
58.127	3.8034	9.58501	72.85139	132.951	76.591339	0.0585	0.3174	0.5823	0.00E+00			
58.232	3.8023	9.58819	72.87339	133.056	76.648671	0.0585	0.3296	0.5823	0.00E+00			
58.338	3.8009	9.5871	72.86242	132.813	76.505345	0.0584	0.3265	0.5823	0.00E+00			
58.449	3.8005	9.58732	72.86349	132.964	76.591342	0.0585	0.3265	0.5591	0.00E+00			
58.545	3.7998	9.5829	72.82843	133.067	76.648674	0.0585	0.3265	0.5628	0.00E+00			
58.637	3.7992	9.57921	72.79933	133.07	76.648675	0.0585	0.3357	0.5615	0.00E+00			
58.737	3.7994	9.58561	72.84828	132.82	76.505348	0.0584	0.3204	0.5628	0.00E+00			
58.835	3.7986	9.58159	72.81624	132.824	76.505349	0.0584	0.3693	0.5823	0.00E+00			
58.935	3.7984	9.58059	72.8082	132.974	76.591346	0.0585	0.3784	0.5786	0.00E+00			
59.027	3.7982	9.57917	72.79709	132.826	76.50535	0.0584	0.3754	0.5811	0.00E+00			
59.114	3.7979	9.57619	72.77394	133.076	76.648678	0.0585	0.3815	0.5823	0.00E+00			
59.201	3.7986	9.57575	72.77178	132.824	76.505352	0.0584	0.3265	0.5823	0.00E+00			
59.298	3.7974	9.57459	72.76072	132.979	76.591349	0.0585	0.3204	0.5823	0.00E+00			
59.398	3.7968	9.57448	72.75869	132.982	76.59135	0.0585	0.3235	0.5786	0.00E+00			
59.509	3.7969	9.57734	72.78075	133.23	76.734678	0.0586	0.3235	0.5859	0.00E+00			
59.616	3.7974	9.56948	72.72179	132.979	76.591351	0.0585	0.3265	0.5628	0.00E+00			
59.711	3.7963	9.57302	72.7467	132.984	76.591352	0.0585	0.3296	0.5615	0.00E+00			
59.801	3.7956	9.57055	72.72657	132.987	76.591353	0.0585	0.3265	0.5615	0.00E+00			
59.892	3.7943	9.56982	72.71846	133.093	76.648685	0.0586	0.3265	0.5628	0.00E+00			
59.984	3.795	9.57092	72.72833	133.089	76.648685	0.0586	0.3662	0.5823	0.00E+00			
60.072	3.7946	9.568	72.70519	132.992	76.591355	0.0585	0.3937	0.5823	0.00E+00			
60.143	3.7945	9.56614	72.69088	132.992	76.591356	0.0585	0.3754	0.5823	0.00E+00			
60.22	3.795	9.56334	72.67062	132.99	76.591356	0.0585	0.3723	0.5823	0.00E+00			
60.307	3.7946	9.56908	72.71345	132.992	76.591357	0.0585	0.3265	0.5786	0.00E+00			
60.408	3.7944	9.56254	72.66343	132.993	76.591357	0.0585	0.3235	0.5859	0.00E+00			
60.518	3.795	9.56214	72.66149	132.99	76.591358	0.0585	0.3204	0.5811	0.00E+00			
60.62	3.7945	9.56081	72.65047	132.992	76.591359	0.0585	0.3357	0.5811	0.00E+00			
60.724	3.7943	9.55902	72.63648	132.993	76.59136	0.0585	0.3296	0.5615	0.00E+00			
60.824	3.7939	9.564	72.67344	132.995	76.591361	0.0585	0.3296	0.5628	0.00E+00			
60.92	3.7934	9.56069	72.64736	132.848	76.505365	0.0584	0.3265	0.5591	0.00E+00			
61.011	3.7938	9.56031	72.64524	132.996	76.591362	0.0585	0.3326	0.5628	0.00E+00			
61.103	3.7934	9.555	72.60412	133.097	76.648694	0.0586	0.3204	0.5628	0.00E+00			
61.199	3.7938	9.55975	72.64105	133.095	76.648694	0.0586	0.3235	0.5615	0.00E+00			
61.294	3.7936	9.55717	72.62096	132.997	76.591364	0.0585	0.3235	0.5615	0.00E+00			
61.377	3.7937	9.55369	72.59476	133.096	76.648696	0.0586	0.3388	0.5652	0.00E+00			
61.459	3.794	9.55175	72.58055	132.995	76.591365	0.0585	0.3235	0.5628	0.00E+00			
61.556	3.7943	9.55454	72.60248	132.993	76.591366	0.0585	0.3296	0.5591	0.00E+00			
61.666	3.7939	9.55242	72.58554	132.995	76.591367	0.0585	0.3235	0.5591	0.00E+00			
61.79	3.7941	9.55332	72.59273	133.094	76.648699	0.0586	0.3296	0.5664	0.00E+00			
61.915	3.7928	9.54945	72.56093	133	76.591369	0.0585	0.3235	0.5628	0.00E+00			
62.024	3.7928	9.55235	72.58298	133	76.591369	0.0585	0.3143	0.5628	0.00E+00			
62.12	3.7922	9.55144	72.5749	133.102	76.648701	0.0586	0.3326	0.5628	0.00E+00			
62.204	3.7918	9.54691	72.53971	133.104	76.648702	0.0586	0.3326	0.5591	0.00E+00			
62.298	3.7916	9.54866	72.55261	133.105	76.648703	0.0586	0.3784	0.5689	0.00E+00			
62.403	3.7917	9.54878	72.55362	133.105	76.648704	0.0586	0.3723	0.5628	0.00E+00			
62.515	3.7913	9.54783	72.5457	133.007	76.591373	0.0585	0.3754	0.5591	0.00E+00			
62.614	3.7914	9.54753	72.54365	133.007	76.591374	0.0585	0.3815	0.5591	0.00E+00			
62.692	3.7917	9.54164	72.49939	133.005	76.591375	0.0585	0.3235	0.5628	0.00E+00			
62.76	3.7924	9.54077	72.49404	132.703	76.419383	0.0584	0.3326	0.5628	0.00E+00			
62.831	3.7926	9.5404	72.49172	133.001	76.591375	0.0585	0.3326	0.5591	0.00E+00			
62.911	3.7927	9.54245	72.50749	133.001	76.591376	0.0585	0.3204	0.5615	0.00E+00			
63.006	3.7919	9.54396	72.5174	133.004	76.591377	0.0585	0.3296	0.5847	0.00E+00			
63.103	3.7916	9.54297	72.50933	133.105	76.648709	0.0586	0.3265	0.5786	0.00E+00			
63.19	3.7923	9.53856	72.47716	133.003	76.591378	0.0585	0.3235	0.5811	0.00E+00			
63.279	3.7929	9.53971	72.48702	132.85	76.505382	0.0584	0.3265	0.5859	0.00E+00			
63.371	3.7923	9.53918	72.48191	133.002	76.591379	0.0585	0.3265	0.5652	0.00E+00			
63.471	3.7925	9.54044	72.49187	133.001	76.59138	0.0585	0.3265	0.5615	0.00E+00			
63.577	3.7923	9.5351	72.45087	133.102	76.648712	0.0586	0.3235	0.5628	0.00E+00			
63.678	3.7925	9.53398	72.44284	133.101	76.648713	0.0586	0.3296	0.5615	0.00E+00			
63.779	3.7923	9.53811	72.47382	133.002	76.591382	0.0585	0.3815	0.5628	0.00E+00			
63.876	3.7928	9.53337	72.43874	133.249	76.734711	0.0586	0.3754	0.5628	0.00E+00			
63.966	3.7924	9.53438	72.4456	132.853	76.505387	0.0584	0.3693	0.5628	0.00E+00			
64.057	3.793	9.53551	72.45547	133.099	76.648715	0.0585	0.3754	0.5628	0.00E+00			
64.146	3.794	9.53025	72.41732	132.995	76.591384	0.0585	0.3235	0.5591	0.00E+00			
64.249	3.7945	9.53105	72.42431	132.992	76.591385	0.0585	0.3265	0.5628	0.00E+00			
64.346	3.7947	9.53112	72.42524	132.991	76.591386	0.0585	0.3265	0.5652	0.00E+00			
64.444	3.7955	9.52668	72.39316	133.236	76.734714	0.0586	0.3235	0.5628	0.00E+00			
64.546	3.7966	9.52854	72.40915	133.082	76.648718	0.0585	0.3204	0.5615	0.00E+00			
64.659	3.8001	9.52661	72.40123	133.066	76.648718	0.0585	0.3235	0.5664	0.00E+00			
64.765	3.802	9.52391	72.38423	132.958	76.591387	0.0585	0.3265	0.5591	0.00E+00			
64.867	3.8039	9.5188	72.3492	133.048	76.648718	0.0585	0.3174	0.5628	0.00E+00			
64.966	3.8055	9.51971	72.35915	133.041	76.648719	0.0585	0.3235	0.5615	0.00E+00			
65.065	3.8062	9.51729	72.34209	132.938	76.591388	0.0585	0.3204	0.5591	0.00E+00			
65.166	3.8068	9.51647	72.33706	132.935	76.591389	0.0585	0.3265	0.5591	0.00E+00			
65.257	3.8071	9.51177	72.30192	133.183	76.734717	0.0586	0.3296	0.5652	0.00E+00			
65.342	3.8077	9.51332	72.31473	132.782	76.505393	0.0584	0.3693	0.5591	0.00E+00			
65.434	3.8087	9.51634	72.33963	133.026	76.648721	0.0585	0.3815	0.5652	0.00E+00			
65.53	3.809	9.51244	72.31053	133.323	76.820716	0.0587	0.3784	0.5615	0.00E+00			
65.617	3.8092	9.51249	72.31137	133.024	76.648722	0.0585	0.3723	0.5628	0.00E+00			
65.695	3.809	9.50672	72.26709	133.025	76.648723	0.0585	0.3296	0.5591	0.00E+00			
65.783	3.8095	9.5067	72.26793	133.022	76.648723	0.0585	0.3235	0.5628	0.00E+00			
65.869	3.8096	9.506	72.26275	132.922	76.591393	0.0585	0.3296	0.5652	0.00E+00			
65.965	3.8091	9.50427	72.24866	133.024	76.648725	0.0585	0.3296	0.5628	0.00E+00			
66.061	3.8084	9.50575	72.25858	133.028	76.648726	0.0585	0.3204	0.5591	0.00E+00			
66.164	3.8085	9.50862	72.28058	133.027	76.648726	0.0585	0.3326	0.5664	0.00E+00			
66.267	3.8086	9.50636	72.26355	133.176	76.734724	0.0586	0.3357	0.5628	0.00E+00			
66.364	3.8089	9.50523	72.25548	133.025	76.648728	0.0585	0.3265	0.5628	0.00E+00			
66.458	3.8091	9.5053	72.25638	133.025	76.648728	0.0585	0.3754	0.5591	0.00E+00			
66.547	3.8091	9.50579	72.26023	133.024	76.648729	0.0585	0.3723	0.5591	0.00E+00			
66.644	3.809	9.50238	72.23414	133.174	76.734727	0.0586	0.3754	0.5628	0.00E+00			
66.743	3.8095	9.50001	72.21708	133.172	76.734727	0.0586	0.3754	0.5615	0.00E+00			
66.844	3.8098	9.50244	72.23605	133.021	76.648731	0.0585	0.3235	0.5664	0.00E+00			
66.935	3.8095	9.49632	72.1889	133.023	76.648732	0.0585	0.3296	0.5652	0.00E+00			
67.019	3.8099	9.49869	72.20771	133.17	76.734729	0.0586	0.3174	0.5689	0.00E+00			
67.106	3.8103	9.49633	72.19053	133.019	76.648733	0.0585	0.3296	0.5591	0.00E+00			
67.214	3.8098	9.49658	72.19156	132.922	76.591403	0.0585	0.3357	0.5652	0.00E+00			
67.335	3.8096	9.49402	72.1717	133.171	76.734731	0.0586	0.3204	0.5615	0.00E+00			
67.464	3.8096	9.49418	72.17293	133.022	76.648735	0.0585	0.3296	0.5615	0.00E+00			
67.572	3.8103	9.49219	72.15895	133.019	76.648736	0.0585	0.3265	0.5591	0.00E+00			
67.651	3.8105	9.49143	72.1537	133.167	76.734733	0.0586	0.3235	0.5628	0.00E+00			
67.715	3.8106	9.4903	72.14531	133.018	76.648737	0.0585	0.3265	0.5591	0.00E+00			
67.783	3.8101	9.4838	72.09492	133.169	76.734735	0.0586	0.3235	0.5628	0.00E+00			
67.863	3.81	9.48668	72.1167	133.169	76.734735	0.0586	0.3204	0.5628	0.00E+00			
67.941	3.8103	9.49185	72.15648	133.019	76.648739	0.0585	0.3693	0.5615	0.00E+00			
68.02	3.81	9.49005	72.14221	133.02	76.648739	0.0585	0.3754	0.5628	0.00E+00			
68.115	3.8107	9.48724	72.12211	133.017	76.64874	0.0585	0.3784	0.5628	0.00E+00			
68.226	3.8106	9.48029	72.06913	133.018	76.648741	0.0585	0.3723	0.5628	0.00E+00			
68.36	3.8102	9.4849	72.10343	133.019	76.648742	0.0585	0.3204	0.5615	0.00E+00			
68.495	3.8107	9.48574	72.11072	133.017	76.648743	0.0585	0.3357	0.5615	0.00E+00			
68.614	3.8108	9.48547	72.10885	132.917	76.591412	0.0585	0.3235	0.5628	0.00E+00			
68.701	3.81	9.47865	72.05563	133.02	76.648744	0.0585	0.3296	0.5591	0.00E+00			
68.754	3.8094	9.48241	72.08317	133.321	76.820739	0.0587	0.3296	0.542	0.00E+00			
68.793	3.8094	9.47419	72.02048	133.023	76.648745	0.0585	0.3265	0.5432	0.00E+00			
68.853	3.8095	9.47541	72.03006	133.022	76.648745	0.0585	0.3204	0.5432	0.00E+00			
68.94	3.8088	9.47808	72.04891	132.926	76.591415	0.0585	0.3204	0.542	0.00E+00			
69.05	3.8086	9.47511	72.02593	133.027	76.648747	0.0585	0.3204	0.5628	0.00E+00			
69.165	3.8084	9.47017	71.98799	133.028	76.648748	0.0585	0.3235	0.5615	0.00E+00			
69.29	3.8069	9.48569	72.1033	133.034	76.648749	0.0585	0.3204	0.5628	0.00E+00			
69.415	3.8061	9.47066	71.98738	133.038	76.64875	0.0585	0.3296	0.5628	0.00E+00			
69.55	3.8064	9.46798	71.96764	133.336	76.820745	0.0587	0.3693	0.5628	0.00E+00			
69.66	3.8066	9.46451	71.94166	132.936	76.591421	0.0585	0.3784	0.5566	0.00E+00			
69.728	3.8074	9.46558	71.95132	133.182	76.734749	0.0586	0.3723	0.5628	0.00E+00			
69.774	3.8078	9.46594	71.95476	133.329	76.820747	0.0587	0.3723	0.5628	0.00E+00			
69.809	3.8072	9.46613	71.95509	133.033	76.648753	0.0585	0.3235	0.542	0.00E+00			
69.869	3.8074	9.46498	71.94665	133.033	76.648753	0.0585	0.3265	0.542	0.00E+00			
69.964	3.8067	9.46644	71.95657	133.035	76.648754	0.0585	0.3296	0.5432	0.00E+00			
70.08	3.8067	9.46698	71.96067	133.035	76.648755	0.0585	0.3235	0.5396	0.00E+00			
70.198	3.8074	9.46777	71.96781	133.033	76.648756	0.0585	0.3754	0.5457	0.00E+00			
70.316	3.8074	9.46672	71.95992	133.182	76.734753	0.0586	0.3754	0.5396	0.00E+00			
70.433	3.8069	9.44406	71.78684	133.034	76.648758	0.0585	0.3693	0.5396	0.00E+00			
70.551	3.8058	9.46345	71.93212	133.189	76.734756	0.0586	0.3815	0.5432	0.00E+00			
70.64	3.8057	9.44739	71.80983	133.189	76.734756	0.0586	0.3723	0.542	0.00E+00			
70.705	3.8057	9.46051	71.90957	133.04	76.64876	0.0585	0.3571	0.542	0.00E+00			
70.744	3.8062	9.45885	71.89793	133.187	76.734757	0.0586	0.3754	0.5432	0.00E+00			
70.781	3.8068	9.46231	71.92531	133.184	76.734757	0.0586	0.3693	0.542	0.00E+00			
70.841	3.8064	9.45694	71.88383	133.186	76.734757	0.0586	0.3723	0.6018	0.00E+00			
70.939	3.8067	9.45977	71.90579	133.185	76.734758	0.0586	0.3754	0.6018	0.00E+00			
71.067	3.8059	9.45974	71.904	133.189	76.734759	0.0586	0.3815	0.6043	0.00E+00			
71.206	3.8054	9.45134	71.83925	133.042	76.648763	0.0585	0.3662	0.6018	0.00E+00			
71.338	3.8048	9.45166	71.8405	133.194	76.734761	0.0586	0.3662	0.5371	0.00E+00			
71.453	3.8035	9.44895	71.81757	132.951	76.591435	0.0585	0.3906	0.5396	0.00E+00			
71.551	3.8025	9.4446	71.78245	133.055	76.648767	0.0585	0.3784	0.5469	0.00E+00			
71.648	3.8012	9.44977	71.81942	133.061	76.648768	0.0585	0.3815	0.5432	0.00E+00			
71.721	3.8006	9.44013	71.74501	133.064	76.648768	0.0585	0.3754	0.5432	0.00E+00			
71.782	3.8001	9.4427	71.76361	133.215	76.734766	0.0586	0.3815	0.5396	0.00E+00			
71.831	3.8	9.44083	71.74906	133.067	76.648769	0.0585	0.3876	0.542	0.00E+00			
71.884	3.7993	9.43949	71.73755	133.07	76.64877	0.0585	0.3845	0.542	0.00E+00			
71.961	3.7989	9.43809	71.72627	133.221	76.734767	0.0586	0.3815	0.5396	0.00E+00			
72.066	3.7977	9.44167	71.75129	133.226	76.734768	0.0586	0.3693	0.5432	0.00E+00			
72.189	3.7976	9.44107	71.74645	133.227	76.734769	0.0586	0.3693	0.542	0.00E+00			
72.319	3.7973	9.43695	71.71464	133.228	76.73477	0.0586	0.3754	0.5396	0.00E+00			
72.446	3.7973	9.43711	71.71585	133.378	76.820769	0.0587	0.3815	0.5432	0.00E+00			
72.555	3.797	9.4302	71.66281	133.379	76.820769	0.0587	0.3723	0.5432	0.00E+00			
72.64	3.7972	9.42909	71.6546	133.08	76.648776	0.0585	0.3754	0.5396	0.00E+00			
72.715	3.7976	9.42511	71.62527	133.376	76.82077	0.0587	0.3723	0.5396	0.00E+00			
72.778	3.7972	9.42332	71.61085	133.229	76.734774	0.0586	0.3754	0.5383	0.00E+00			
72.845	3.7974	9.42573	71.6295	133.078	76.648777	0.0585	0.3876	0.5396	0.00E+00			
72.912	3.7973	9.42149	71.59709	133.079	76.648778	0.0585	0.3723	0.5396	0.00E+00			
72.994	3.7978	9.41948	71.58285	133.226	76.734775	0.0586	0.3754	0.5432	0.00E+00			
73.09	3.7984	9.42183	71.60179	133.074	76.648779	0.0585	0.3235	0.5432	0.00E+00			
73.187	3.7983	9.41723	71.56665	132.975	76.591448	0.0585	0.3235	0.5396	0.00E+00			
73.282	3.7983	9.41379	71.54051	133.074	76.64878	0.0585	0.3326	0.5396	0.00E+00			
73.372	3.7981	9.41078	71.51733	133.225	76.734778	0.0586	0.3418	0.5396	0.00E+00			
73.467	3.7979	9.41216	71.52724	133.076	76.648782	0.0585	0.3754	0.5396	0.00E+00			
73.556	3.7978	9.41031	71.51306	133.226	76.734779	0.0586	0.3754	0.542	0.00E+00			
73.633	3.7981	9.40875	71.50177	133.225	76.73478	0.0586	0.3754	0.5383	0.00E+00			
73.697	3.7991	9.40937	71.50839	133.071	76.648783	0.0585	0.3845	0.5396	0.00E+00			
73.761	3.8003	9.40361	71.46693	133.065	76.648783	0.0585	0.3754	0.5432	0.00E+00			
73.856	3.8017	9.4026	71.46182	133.208	76.73478	0.0586	0.3693	0.5432	0.00E+00			
73.983	3.8022	9.40183	71.45701	133.355	76.820778	0.0587	0.3693	0.5432	0.00E+00			
74.121	3.8014	9.40103	71.4493	133.209	76.734782	0.0586	0.3662	0.5432	0.00E+00			
74.244	3.8001	9.40228	71.45647	133.215	76.734784	0.0586	0.3723	0.5432	0.00E+00			
74.347	3.7988	9.39759	71.41838	133.221	76.734785	0.0586	0.3754	0.5396	0.00E+00			
74.428	3.7976	9.39721	71.41314	132.978	76.591457	0.0585	0.3815	0.5432	0.00E+00			
74.503	3.7975	9.39377	71.3868	133.228	76.734786	0.0586	0.3693	0.5432	0.00E+00			
74.572	3.7966	9.39567	71.39947	133.083	76.64879	0.0585	0.3937	0.5396	0.00E+00			
74.641	3.7967	9.39374	71.3851	132.982	76.591459	0.0585	0.3723	0.5432	0.00E+00			
74.705	3.7967	9.39501	71.39472	133.082	76.648791	0.0585	0.3754	0.542	0.00E+00			
74.764	3.7968	9.38795	71.34119	133.082	76.648791	0.0585	0.3754	0.5432	0.00E+00			
74.836	3.7961	9.38859	71.34487	133.383	76.820786	0.0587	0.3815	0.5359	0.00E+00			
74.937	3.796	9.38874	71.34583	133.334	76.792121	0.0586	0.3723	0.5396	0.00E+00			
75.059	3.7959	9.3897	71.35299	133.235	76.73479	0.0586	0.3845	0.5396	0.00E+00			
75.187	3.7967	9.38848	71.34519	133.231	76.734791	0.0586	0.3815	0.5432	0.00E+00			
75.309	3.7961	9.38485	71.31628	133.085	76.648795	0.0585	0.3265	0.5237	0.00E+00			
75.414	3.7966	9.38642	71.32929	133.232	76.734793	0.0586	0.3326	0.52	0.00E+00			
75.499	3.7959	9.38354	71.30605	133.086	76.648797	0.0585	0.3265	0.52	0.00E+00			
75.558	3.7957	9.37852	71.26754	133.236	76.734794	0.0586	0.3265	0.52	0.00E+00			
75.621	3.7964	9.3808	71.28617	133.083	76.648797	0.0585	0.3662	0.52	0.00E+00			
75.691	3.7964	9.38088	71.28683	133.233	76.734795	0.0586	0.3754	0.5151	0.00E+00			
75.769	3.7958	9.37638	71.2515	132.986	76.591468	0.0585	0.3662	0.5176	0.00E+00			
75.867	3.7959	9.38003	71.27947	133.384	76.820794	0.0587	0.3815	0.5237	0.00E+00			
75.977	3.7961	9.37776	71.26248	133.234	76.734797	0.0586	0.3754	0.542	0.00E+00			
76.091	3.7961	9.37949	71.27558	133.234	76.734798	0.0586	0.3815	0.5432	0.00E+00			
76.203	3.7963	9.37483	71.24057	133.233	76.734799	0.0586	0.3845	0.5457	0.00E+00			
76.306	3.7964	9.37138	71.21448	133.083	76.648802	0.0585	0.3693	0.5396	0.00E+00			
76.406	3.797	9.37292	71.22744	133.08	76.648803	0.0585	0.3204	0.5237	0.00E+00			
76.493	3.7998	9.37116	71.21925	133.068	76.648803	0.0585	0.3204	0.52	0.00E+00			
76.575	3.8007	9.36906	71.205	133.063	76.648803	0.0585	0.3357	0.5225	0.00E+00			
76.648	3.8012	9.36743	71.19366	133.21	76.734801	0.0586	0.3174	0.5225	0.00E+00			
76.723	3.801	9.36519	71.17633	133.36	76.820799	0.0587	0.3723	0.5188	0.00E+00			
76.799	3.8007	9.36418	71.16803	133.213	76.734802	0.0586	0.3845	0.5225	0.00E+00			
76.89	3.8007	9.3651	71.1749	133.213	76.734802	0.0586	0.3723	0.5188	0.00E+00			
76.996	3.8005	9.36488	71.17289	133.214	76.734803	0.0586	0.3693	0.5237	0.00E+00			
77.112	3.8006	9.36342	71.16196	133.064	76.648807	0.0585	0.3723	0.5469	0.00E+00			
77.228	3.8007	9.35917	71.12999	133.213	76.734805	0.0586	0.3754	0.5432	0.00E+00			
77.329	3.8004	9.357	71.1129	133.214	76.734806	0.0586	0.3723	0.5396	0.00E+00			
77.418	3.8005	9.35669	71.11074	133.363	76.820804	0.0587	0.3784	0.5396	0.00E+00			
77.501	3.7997	9.36294	71.15661	133.367	76.820804	0.0587	0.3326	0.52	0.00E+00			
77.582	3.7988	9.35573	71.10026	133.072	76.648811	0.0585	0.3235	0.5188	0.00E+00			
77.661	3.799	9.35698	71.11001	133.071	76.648811	0.0585	0.3174	0.5225	0.00E+00			
77.739	3.7986	9.35676	71.10774	133.222	76.734809	0.0586	0.3296	0.5176	0.00E+00			
77.819	3.7987	9.35645	71.10548	133.222	76.73481	0.0586	0.3754	0.5371	0.00E+00			
77.914	3.7999	9.35708	71.1124	132.968	76.591482	0.0585	0.3754	0.5396	0.00E+00			
78.02	3.8001	9.35397	71.08934	133.365	76.820808	0.0587	0.3784	0.542	0.00E+00			
78.132	3.8003	9.35644	71.10843	133.214	76.734812	0.0586	0.3815	0.5432	0.00E+00			
78.244	3.8011	9.35362	71.08844	133.211	76.734812	0.0586	0.3784	0.5432	0.00E+00			
78.345	3.802	9.35116	71.07136	133.356	76.82081	0.0587	0.3784	0.5432	0.00E+00			
78.436	3.8018	9.35449	71.09627	133.059	76.648816	0.0585	0.3754	0.5396	0.00E+00			
78.515	3.8019	9.3498	71.06093	133.207	76.734814	0.0586	0.3784	0.5383	0.00E+00			
78.592	3.8026	9.35368	71.09172	133.353	76.820812	0.0587	0.3815	0.52	0.00E+00			
78.667	3.803	9.34773	71.04733	133.202	76.734815	0.0586	0.3754	0.5188	0.00E+00			
78.757	3.8032	9.34937	71.0602	133.35	76.820813	0.0587	0.3662	0.52	0.00E+00			
78.862	3.8027	9.354	71.09426	133.204	76.734816	0.0586	0.3693	0.52	0.00E+00			
78.956	3.8016	9.34883	71.05305	133.059	76.64882	0.0585	0.3754	0.5432	0.00E+00			
79.039	3.802	9.34885	71.05383	133.057	76.648821	0.0585	0.3723	0.5469	0.00E+00			
79.117	3.8018	9.349	71.05457	133.208	76.734818	0.0586	0.3784	0.5383	0.00E+00			
79.206	3.8015	9.34916	71.05541	133.209	76.734819	0.0586	0.3632	0.5396	0.00E+00			
79.313	3.801	9.35298	71.08347	133.211	76.73482	0.0586	0.3632	0.5176	0.00E+00			
79.431	3.8012	9.34834	71.04849	133.061	76.648824	0.0585	0.3754	0.5225	0.00E+00			
79.535	3.801	9.34852	71.04948	133.211	76.734821	0.0586	0.3723	0.52	0.00E+00			
79.606	3.8004	9.34718	71.03811	133.065	76.648825	0.0585	0.3693	0.52	0.00E+00			
79.65	3.8003	9.3437	71.01147	133.065	76.648825	0.0585	0.3784	0.5225	0.00E+00			
79.697	3.8002	9.34218	70.99988	133.215	76.734823	0.0586	0.3723	0.5188	0.00E+00			
79.788	3.7999	9.34634	71.03081	133.217	76.734824	0.0586	0.3815	0.5261	0.00E+00			
79.917	3.8	9.35003	71.05908	132.967	76.591496	0.0585	0.3693	0.52	0.00E+00			
80.032	3.7987	9.35009	71.05716	133.371	76.820823	0.0587	0.3693	0.5615	0.00E+00			
80.117	3.7982	9.34675	71.03089	133.224	76.734826	0.0586	0.3845	0.5615	0.00E+00			
80.178	3.7979	9.34373	71.00741	133.375	76.820824	0.0587	0.3693	0.5628	0.00E+00			
80.234	3.7979	9.34301	71.00192	133.375	76.820825	0.0587	0.3723	0.5615	0.00E+00			
80.316	3.7977	9.34554	71.02074	133.376	76.820825	0.0587	0.3754	0.5664	0.00E+00			
80.431	3.7971	9.34664	71.02783	133.08	76.648832	0.0585	0.3784	0.5591	0.00E+00			
80.538	3.7975	9.34665	71.02884	133.327	76.792161	0.0586	0.3754	0.5652	0.00E+00			
80.626	3.798	9.33992	70.97854	133.076	76.648833	0.0585	0.3601	0.5628	0.00E+00			
80.693	3.7978	9.3444	71.01225	133.525	76.906826	0.0587	0.3784	0.5225	0.00E+00			
80.755	3.7978	9.33894	70.97073	133.525	76.906826	0.0587	0.3693	0.5225	0.00E+00			
80.839	3.7976	9.34148	70.98956	133.227	76.734832	0.0586	0.3693	0.5237	0.00E+00			
80.956	3.7977	9.34595	71.02374	133.227	76.734833	0.0586	0.3693	0.5225	0.00E+00			
81.082	3.7977	9.34095	70.98583	133.226	76.734833	0.0586	0.3143	0.52	0.00E+00			
81.205	3.7978	9.34148	70.98999	133.226	76.734834	0.0586	0.3296	0.52	0.00E+00			
81.299	3.7975	9.33495	70.93975	133.228	76.734835	0.0586	0.3235	0.5176	0.00E+00			
81.377	3.7975	9.3378	70.96153	133.227	76.734836	0.0586	0.3174	0.5225	0.00E+00			
81.449	3.7968	9.33134	70.91108	133.081	76.648839	0.0585	0.3693	0.52	0.00E+00			
81.536	3.7971	9.33534	70.94198	133.23	76.734837	0.0586	0.3784	0.52	0.00E+00			
81.621	3.797	9.3315	70.9127	133.23	76.734837	0.0586	0.3723	0.5188	0.00E+00			
81.719	3.797	9.33202	70.91662	133.379	76.820836	0.0587	0.3723	0.52	0.00E+00			
81.802	3.7977	9.33196	70.9174	133.077	76.648842	0.0585	0.3845	0.5225	0.00E+00			
81.879	3.7976	9.32573	70.87	133.227	76.734839	0.0586	0.3784	0.52	0.00E+00			
81.963	3.7974	9.3255	70.86777	133.228	76.73484	0.0586	0.3632	0.5176	0.00E+00			
82.061	3.7979	9.32351	70.85365	133.375	76.820838	0.0587	0.3723	0.52	0.00E+00			
82.161	3.7981	9.32597	70.87264	133.076	76.648844	0.0585	0.3693	0.542	0.00E+00			
82.261	3.7984	9.32165	70.84049	133.223	76.734842	0.0586	0.3876	0.5396	0.00E+00			
82.342	3.7985	9.32015	70.82922	133.223	76.734842	0.0586	0.3754	0.542	0.00E+00			
82.41	3.7982	9.31634	70.79977	133.523	76.906838	0.0587	0.3845	0.5396	0.00E+00			
82.478	3.7985	9.31476	70.78838	133.223	76.734843	0.0586	0.3754	0.5176	0.00E+00			
82.567	3.7984	9.31491	70.78921	133.223	76.734844	0.0586	0.3723	0.52	0.00E+00			
82.666	3.7971	9.31337	70.7751	133.379	76.820842	0.0587	0.3693	0.5151	0.00E+00			
82.771	3.7972	9.31546	70.79113	133.378	76.820843	0.0587	0.3784	0.52	0.00E+00			
82.865	3.7972	9.31122	70.75891	133.378	76.820844	0.0587	0.3815	0.52	0.00E+00			
82.947	3.7976	9.30727	70.7296	133.227	76.734847	0.0586	0.3754	0.52	0.00E+00			
83.032	3.7972	9.30589	70.71836	133.229	76.734848	0.0586	0.3723	0.5237	0.00E+00			
83.132	3.7974	9.30358	70.70125	133.377	76.820846	0.0587	0.3754	0.52	0.00E+00			
83.251	3.7973	9.30968	70.74749	133.228	76.734849	0.0586	0.3754	0.5396	0.00E+00			
83.354	3.7972	9.30074	70.67926	133.378	76.820847	0.0587	0.3693	0.5396	0.00E+00			
83.436	3.7963	9.30027	70.674	133.084	76.648854	0.0585	0.3693	0.5432	0.00E+00			
83.497	3.7958	9.29888	70.66254	133.235	76.734851	0.0586	0.3723	0.542	0.00E+00			
83.562	3.7964	9.29684	70.64811	133.382	76.820849	0.0587	0.3815	0.5188	0.00E+00			
83.659	3.7957	9.30107	70.6791	133.086	76.648855	0.0585	0.3754	0.5237	0.00E+00			
83.764	3.7954	9.3005	70.67407	133.237	76.734853	0.0586	0.3754	0.5237	0.00E+00			
83.872	3.795	9.29755	70.65101	133.239	76.734854	0.0586	0.3754	0.52	0.00E+00			
83.968	3.7953	9.29919	70.66394	133.089	76.648858	0.0585	0.3235	0.5176	0.00E+00			
84.052	3.7954	9.2945	70.62863	133.386	76.820853	0.0587	0.3296	0.52	0.00E+00			
84.138	3.7954	9.2954	70.63545	133.237	76.734856	0.0586	0.3265	0.52	0.00E+00			
84.236	3.7947	9.29531	70.63335	133.39	76.820854	0.0587	0.3265	0.52	0.00E+00			
84.336	3.7948	9.29223	70.61022	133.389	76.820855	0.0587	0.3845	0.5225	0.00E+00			
84.429	3.7955	9.29297	70.6171	133.386	76.820855	0.0587	0.3845	0.52	0.00E+00			
84.51	3.7947	9.29128	70.60282	133.39	76.820856	0.0587	0.3662	0.52	0.00E+00			
84.588	3.7942	9.28953	70.58849	133.243	76.73486	0.0586	0.3723	0.52	0.00E+00			
84.666	3.7942	9.29003	70.59224	133.243	76.73486	0.0586	0.3754	0.5225	0.00E+00			
84.747	3.7946	9.29318	70.61707	133.39	76.820858	0.0587	0.3723	0.5237	0.00E+00			
84.844	3.7949	9.29045	70.59691	133.389	76.820859	0.0587	0.3723	0.5188	0.00E+00			
84.948	3.795	9.29017	70.59487	133.389	76.820859	0.0587	0.3693	0.5225	0.00E+00			
85.048	3.795	9.28752	70.57474	133.239	76.734863	0.0586	0.3662	0.5225	0.00E+00			
85.146	3.7952	9.2872	70.57265	133.089	76.648866	0.0585	0.3662	0.52	0.00E+00			
85.24	3.7955	9.28882	70.58557	133.386	76.820861	0.0587	0.3784	0.5237	0.00E+00			
85.325	3.7956	9.28692	70.57131	133.336	76.792196	0.0586	0.3723	0.5176	0.00E+00			
85.411	3.7962	9.28371	70.54804	133.234	76.734865	0.0586	0.3723	0.52	0.00E+00			
85.486	3.796	9.28386	70.54874	133.085	76.648869	0.0585	0.3723	0.5225	0.00E+00			
85.558	3.7963	9.2823	70.53737	133.233	76.734866	0.0586	0.3723	0.5225	0.00E+00			
85.641	3.7963	9.28161	70.53213	133.233	76.734867	0.0586	0.3723	0.52	0.00E+00			
85.733	3.7962	9.28134	70.52998	133.234	76.734867	0.0586	0.3815	0.542	0.00E+00			
85.83	3.7959	9.2831	70.54292	133.085	76.648871	0.0585	0.3815	0.5432	0.00E+00			
85.92	3.7968	9.28182	70.53474	133.38	76.820866	0.0587	0.3693	0.5383	0.00E+00			
86.002	3.7975	9.27937	70.51744	133.228	76.734869	0.0586	0.3693	0.5396	0.00E+00			
86.084	3.7987	9.27561	70.49113	133.371	76.820867	0.0587	0.3662	0.5176	0.00E+00			
86.171	3.7983	9.2762	70.49495	133.224	76.73487	0.0586	0.3693	0.5225	0.00E+00			
86.257	3.7991	9.27691	70.50177	133.22	76.73487	0.0586	0.3693	0.52	0.00E+00			
86.337	3.7996	9.27887	70.51756	133.218	76.734871	0.0586	0.3632	0.52	0.00E+00			
86.405	3.7998	9.27455	70.48509	133.366	76.820869	0.0587	0.3693	0.52	0.00E+00			
86.473	3.7995	9.27272	70.47067	133.218	76.734872	0.0586	0.3754	0.5237	0.00E+00			
86.552	3.7995	9.27718	70.50452	133.218	76.734872	0.0586	0.3693	0.5188	0.00E+00			
86.65	3.7987	9.2755	70.49039	133.222	76.734873	0.0586	0.3723	0.52	0.00E+00			
86.766	3.7983	9.27574	70.49147	133.373	76.820872	0.0587	0.3815	0.542	0.00E+00			
86.881	3.7986	9.27582	70.49254	133.372	76.820872	0.0587	0.3754	0.5432	0.00E+00			
86.974	3.7991	9.27583	70.49341	133.22	76.734876	0.0586	0.3632	0.5432	0.00E+00			
87.052	3.7982	9.27651	70.49715	133.523	76.906871	0.0587	0.3723	0.5396	0.00E+00			
87.132	3.7985	9.26743	70.42866	133.372	76.820874	0.0587	0.3235	0.5237	0.00E+00			
87.231	3.7987	9.27423	70.48076	133.371	76.820875	0.0587	0.3143	0.52	0.00E+00			
87.331	3.799	9.27113	70.45761	133.47	76.878207	0.0587	0.3235	0.5237	0.00E+00			
87.41	3.7996	9.26911	70.4433	133.218	76.734879	0.0586	0.3296	0.5225	0.00E+00			
87.473	3.7993	9.26885	70.44088	133.219	76.734879	0.0586	0.3754	0.52	0.00E+00			
87.527	3.7991	9.27015	70.45041	133.37	76.820877	0.0587	0.3632	0.5151	0.00E+00			
87.595	3.7995	9.26659	70.42395	133.219	76.73488	0.0586	0.3845	0.52	0.00E+00			
87.682	3.7996	9.26864	70.43982	133.069	76.648883	0.0585	0.3723	0.5188	0.00E+00			
87.778	3.7991	9.2673	70.42867	133.37	76.820879	0.0587	0.3754	0.542	0.00E+00			
87.879	3.7998	9.26607	70.42058	133.317	76.792213	0.0586	0.3723	0.5432	0.00E+00			
87.985	3.7995	9.26627	70.42156	133.368	76.82088	0.0587	0.3723	0.5432	0.00E+00			
88.088	3.7996	9.2616	70.3864	133.367	76.820881	0.0587	0.3754	0.5396	0.00E+00			
88.185	3.7999	9.26323	70.39935	133.366	76.820881	0.0586	0.3815	0.5176	0.00E+00			
88.288	3.7998	9.2634	70.40031	133.366	76.820882	0.0586	0.3754	0.5237	0.00E+00			
88.381	3.7999	9.26347	70.40117	133.366	76.820883	0.0586	0.3723	0.52	0.00E+00			
88.46	3.8008	9.25821	70.36277	133.511	76.906881	0.0587	0.3693	0.5188	0.00E+00			
88.524	3.8003	9.25642	70.34832	133.215	76.734886	0.0586	0.3601	0.5225	0.00E+00			
88.586	3.8004	9.25687	70.35191	133.314	76.792218	0.0586	0.3693	0.5225	0.00E+00			
88.661	3.8005	9.25695	70.35261	133.214	76.734887	0.0586	0.3754	0.52	0.00E+00			
88.757	3.8005	9.25786	70.35952	133.363	76.820885	0.0586	0.3693	0.5164	0.00E+00			
88.863	3.7999	9.25178	70.31233	133.366	76.820886	0.0586	0.3662	0.5432	0.00E+00			
88.96	3.7993	9.25206	70.31324	133.219	76.73489	0.0586	0.3845	0.5457	0.00E+00			
89.043	3.7997	9.25285	70.32003	133.367	76.820888	0.0586	0.3815	0.5396	0.00E+00			
89.124	3.7993	9.24751	70.27863	133.369	76.820888	0.0586	0.3723	0.5432	0.00E+00			
89.222	3.7994	9.25157	70.30965	133.468	76.878221	0.0587	0.3754	0.5237	0.00E+00			
89.329	3.7987	9.25225	70.31366	133.521	76.906888	0.0587	0.3815	0.5237	0.00E+00			
89.418	3.7983	9.2477	70.27836	133.224	76.734893	0.0586	0.3845	0.52	0.00E+00			
89.493	3.7981	9.24824	70.28207	133.374	76.820891	0.0587	0.3784	0.5176	0.00E+00			
89.559	3.7983	9.24432	70.25257	133.224	76.734894	0.0586	0.3815	0.5042	0.00E+00			
89.635	3.798	9.24843	70.28339	133.374	76.820892	0.0587	0.3693	0.4993	0.00E+00			
89.744	3.7974	9.24634	70.26633	133.228	76.734896	0.0586	0.3815	0.4981	0.00E+00			
89.864	3.7973	9.2481	70.2795	133.228	76.734897	0.0586	0.3845	0.5005	0.00E+00			
89.979	3.7978	9.24099	70.22636	133.475	76.878227	0.0587	0.3815	0.52	0.00E+00			
90.082	3.7979	9.24505	70.25744	133.226	76.734898	0.0586	0.3754	0.52	0.00E+00			
90.159	3.7978	9.23962	70.216	133.375	76.820896	0.0587	0.3632	0.52	0.00E+00			
90.232	3.7979	9.23889	70.21065	133.375	76.820897	0.0587	0.3693	0.5225	0.00E+00			
90.304	3.797	9.23921	70.21132	133.379	76.820897	0.0587	0.3723	0.5005	0.00E+00			
90.388	3.7967	9.23898	70.20909	133.231	76.734901	0.0586	0.3723	0.4981	0.00E+00			
90.48	3.7961	9.24241	70.23404	133.383	76.820899	0.0587	0.3784	0.5005	0.00E+00			
90.566	3.7955	9.23473	70.17461	133.386	76.8209	0.0587	0.3815	0.5005	0.00E+00			
90.652	3.7946	9.23625	70.18444	133.341	76.792235	0.0586	0.3632	0.5176	0.00E+00			
90.743	3.7947	9.23673	70.1883	133.24	76.734904	0.0586	0.3754	0.5188	0.00E+00			
90.841	3.7939	9.23586	70.18018	133.244	76.734905	0.0586	0.3845	0.52	0.00E+00			
90.945	3.7936	9.2325	70.15403	133.395	76.820903	0.0587	0.3815	0.5225	0.00E+00			
91.033	3.7926	9.23125	70.1428	133.399	76.820904	0.0587	0.3784	0.4981	0.00E+00			
91.118	3.7924	9.23617	70.17973	133.55	76.906902	0.0587	0.3815	0.5005	0.00E+00			
91.207	3.7923	9.23192	70.14743	133.7	76.992901	0.0588	0.3845	0.5005	0.00E+00			
91.288	3.7923	9.22966	70.13012	133.252	76.734908	0.0586	0.3723	0.4993	0.00E+00			
91.37	3.7921	9.23296	70.15497	133.701	76.992902	0.0588	0.3693	0.5029	0.00E+00			
91.454	3.7917	9.22962	70.12864	133.255	76.73491	0.0586	0.3571	0.5005	0.00E+00			
91.548	3.7916	9.22817	70.11748	133.255	76.73491	0.0586	0.3815	0.5005	0.00E+00			
91.655	3.7919	9.22863	70.12148	133.403	76.820908	0.0587	0.3693	0.4993	0.00E+00			
91.778	3.7919	9.22955	70.12864	133.552	76.906907	0.0587	0.3815	0.4993	0.00E+00			
91.902	3.792	9.22176	70.06955	133.402	76.82091	0.0587	0.3662	0.4932	0.00E+00			
92.026	3.792	9.22668	70.10685	133.403	76.820911	0.0587	0.3754	0.5042	0.00E+00			
92.136	3.7918	9.22328	70.08076	133.354	76.792246	0.0586	0.3754	0.5029	0.00E+00			
92.238	3.7911	9.21961	70.05159	133.407	76.820913	0.0587	0.3723	0.5005	0.00E+00			
92.339	3.7909	9.22336	70.07964	133.258	76.734916	0.0586	0.3815	0.5029	0.00E+00			
92.435	3.791	9.22107	70.06245	133.407	76.820914	0.0587	0.3845	0.4981	0.00E+00			
92.533	3.7916	9.22223	70.0724	133.554	76.906913	0.0587	0.3754	0.5005	0.00E+00			
92.637	3.7915	9.22198	70.07035	133.405	76.820916	0.0587	0.3723	0.5225	0.00E+00			
92.741	3.7916	9.21893	70.04721	133.404	76.820916	0.0587	0.3723	0.52	0.00E+00			
92.852	3.7917	9.22181	70.06933	133.354	76.792251	0.0586	0.3723	0.5188	0.00E+00			
92.963	3.7921	9.22183	70.07036	133.551	76.906916	0.0587	0.3754	0.52	0.00E+00			
93.072	3.7925	9.21792	70.04125	133.4	76.820919	0.0587	0.3723	0.4993	0.00E+00			
93.173	3.792	9.21975	70.05423	133.403	76.820919	0.0587	0.3754	0.5005	0.00E+00			
93.27	3.7915	9.21881	70.0461	133.405	76.82092	0.0587	0.3815	0.5005	0.00E+00			
93.372	3.7915	9.21733	70.03499	133.554	76.906919	0.0587	0.3723	0.5005	0.00E+00			
93.476	3.7906	9.22205	70.06909	133.409	76.820922	0.0587	0.3815	0.5042	0.00E+00			
93.574	3.7908	9.21854	70.04289	133.557	76.90692	0.0587	0.3784	0.5005	0.00E+00			
93.667	3.7905	9.21913	70.04677	133.26	76.734926	0.0586	0.3662	0.4993	0.00E+00			
93.752	3.79	9.21896	70.04454	133.113	76.648929	0.0585	0.3693	0.4993	0.00E+00			
93.842	3.7898	9.21634	70.02428	133.413	76.820925	0.0587	0.3754	0.5029	0.00E+00			
93.942	3.7894	9.21854	70.04027	133.564	76.906923	0.0587	0.3754	0.5005	0.00E+00			
94.054	3.7896	9.21902	70.04433	133.413	76.820926	0.0587	0.3754	0.5029	0.00E+00			
94.172	3.7886	9.21546	70.0153	133.418	76.820927	0.0587	0.3723	0.5005	0.00E+00			
94.282	3.7887	9.21873	70.04042	133.418	76.820928	0.0587	0.3754	0.4993	0.00E+00			
94.379	3.7893	9.22107	70.05939	133.514	76.878261	0.0587	0.3754	0.5005	0.00E+00			
94.468	3.7894	9.21998	70.05118	133.564	76.906927	0.0587	0.3723	0.5005	0.00E+00			
94.554	3.7893	9.2205	70.05499	133.415	76.82093	0.0587	0.3754	0.5005	0.00E+00			
94.647	3.7888	9.21598	70.01969	133.716	76.992927	0.0588	0.3815	0.5005	0.00E+00			
94.741	3.7895	9.21593	70.02057	133.414	76.820931	0.0587	0.3601	0.5005	0.00E+00			
94.835	3.7888	9.22018	70.05157	133.417	76.820932	0.0587	0.3754	0.4956	0.00E+00			
94.926	3.7889	9.21749	70.03132	133.566	76.906931	0.0587	0.3693	0.5005	0.00E+00			
95.014	3.7883	9.21893	70.04118	133.27	76.734936	0.0586	0.3754	0.5005	0.00E+00			
95.101	3.788	9.21712	70.02692	133.521	76.878266	0.0587	0.3723	0.5005	0.00E+00			
95.202	3.7888	9.21704	70.02786	133.567	76.906933	0.0587	0.3815	0.4993	0.00E+00			
95.307	3.7886	9.2188	70.04088	133.717	76.992932	0.0588	0.3693	0.5005	0.00E+00			
95.404	3.7881	9.21786	70.03274	133.57	76.906934	0.0587	0.3754	0.4773	0.00E+00			
95.485	3.7881	9.2136	70.00035	133.421	76.820937	0.0587	0.3723	0.4797	0.00E+00			
95.565	3.7876	9.21184	69.98602	133.423	76.820938	0.0587	0.3632	0.4846	0.00E+00			
95.651	3.7877	9.21391	70.00188	133.423	76.820938	0.0587	0.3723	0.4773	0.00E+00			
95.741	3.7868	9.21501	70.00874	133.426	76.820939	0.0587	0.3845	0.5005	0.00E+00			
95.829	3.7866	9.21796	70.03066	133.278	76.734942	0.0586	0.3754	0.5005	0.00E+00			
95.909	3.7861	9.21182	69.98319	133.579	76.906938	0.0587	0.3815	0.5029	0.00E+00			
95.996	3.7859	9.21197	69.98399	133.58	76.906939	0.0587	0.3693	0.4981	0.00E+00			
96.094	3.7853	9.21702	70.02106	133.434	76.820942	0.0587	0.3754	0.5029	0.00E+00			
96.19	3.7842	9.21461	70.00085	133.438	76.820943	0.0587	0.3754	0.5005	0.00E+00			
96.28	3.7842	9.21511	70.0047	133.438	76.820944	0.0587	0.3723	0.5005	0.00E+00			
96.369	3.7835	9.21184	69.9784	133.293	76.734947	0.0586	0.3723	0.5005	0.00E+00			
96.456	3.7831	9.21362	69.99126	133.544	76.878277	0.0587	0.3876	0.5005	0.00E+00			
96.535	3.7837	9.21555	70.00706	133.59	76.906944	0.0587	0.3784	0.5005	0.00E+00			
96.617	3.7835	9.21093	69.97165	133.442	76.820946	0.0587	0.3815	0.4993	0.00E+00			
96.685	3.7837	9.2082	69.95119	133.74	76.992943	0.0588	0.3845	0.5005	0.00E+00			
96.747	3.7844	9.21166	69.97889	133.736	76.992943	0.0588	0.3754	0.52	0.00E+00			
96.805	3.7847	9.2093	69.96134	133.586	76.906945	0.0587	0.3754	0.5237	0.00E+00			
96.877	3.7846	9.20823	69.95297	133.437	76.820948	0.0587	0.3723	0.5237	0.00E+00			
96.972	3.784	9.20769	69.94782	133.44	76.820949	0.0587	0.3815	0.5261	0.00E+00			
97.082	3.7832	9.21158	69.97597	133.393	76.792284	0.0586	0.3754	0.5396	0.00E+00			
97.193	3.7831	9.2046	69.92274	133.743	76.992947	0.0588	0.3723	0.5396	0.00E+00			
97.291	3.7834	9.20862	69.95379	133.144	76.648957	0.0585	0.3754	0.5432	0.00E+00			
97.386	3.7834	9.20476	69.92453	133.592	76.90695	0.0587	0.3723	0.5383	0.00E+00			
97.477	3.7834	9.2021	69.90427	133.443	76.820953	0.0587	0.3784	0.5005	0.00E+00			
97.561	3.7824	9.20323	69.91108	133.596	76.906951	0.0587	0.3845	0.5029	0.00E+00			
97.633	3.7822	9.199	69.87858	133.448	76.820954	0.0587	0.3723	0.5066	0.00E+00			
97.699	3.7815	9.20124	69.89427	133.401	76.792289	0.0586	0.3723	0.5005	0.00E+00			
97.763	3.7816	9.2009	69.89185	133.451	76.820955	0.0587	0.3815	0.5042	0.00E+00			
97.835	3.7819	9.19893	69.87744	133.449	76.820955	0.0587	0.3754	0.5005	0.00E+00			
97.912	3.7806	9.19774	69.8661	133.455	76.820956	0.0587	0.3723	0.5005	0.00E+00			
97.993	3.7808	9.19621	69.85479	133.604	76.906955	0.0587	0.3723	0.4993	0.00E+00			
98.099	3.7794	9.19628	69.85276	133.461	76.820958	0.0587	0.3723	0.5261	0.00E+00			
98.211	3.7799	9.1959	69.85078	133.459	76.820959	0.0587	0.3815	0.52	0.00E+00			
98.31	3.7798	9.19208	69.82155	133.758	76.992956	0.0588	0.3754	0.52	0.00E+00			
98.404	3.7803	9.18889	69.7983	133.556	76.878292	0.0587	0.3815	0.5225	0.00E+00			
98.502	3.7795	9.19199	69.82031	133.759	76.992957	0.0588	0.3662	0.4993	0.00E+00			
98.6	3.7788	9.19109	69.81217	133.613	76.90696	0.0587	0.3784	0.4968	0.00E+00			
98.68	3.7779	9.18941	69.79784	133.617	76.90696	0.0587	0.3845	0.4981	0.00E+00			
98.744	3.7786	9.18734	69.78336	133.465	76.820963	0.0587	0.3845	0.5029	0.00E+00			
98.801	3.7784	9.18429	69.75976	133.466	76.820963	0.0587	0.3815	0.5237	0.00E+00			
98.873	3.7789	9.18585	69.77248	133.613	76.906962	0.0587	0.3723	0.5164	0.00E+00			
98.966	3.7776	9.18308	69.74923	133.718	76.964295	0.0588	0.3754	0.5176	0.00E+00			
99.078	3.7771	9.18573	69.76835	133.771	76.992962	0.0588	0.3723	0.5188	0.00E+00			
99.192	3.7763	9.1825	69.74227	133.476	76.820967	0.0587	0.3845	0.5029	0.00E+00			
99.287	3.7757	9.18235	69.74014	133.628	76.906965	0.0587	0.3815	0.4993	0.00E+00			
99.375	3.7754	9.18093	69.72889	133.629	76.906966	0.0587	0.3754	0.4968	0.00E+00			
99.459	3.7746	9.17925	69.71459	133.633	76.906967	0.0587	0.3754	0.5005	0.00E+00			
99.548	3.7743	9.17865	69.70938	133.634	76.906968	0.0587	0.3754	0.5029	0.00E+00			
99.635	3.7732	9.18061	69.72224	133.639	76.906969	0.0587	0.3723	0.4981	0.00E+00			
99.706	3.7734	9.17865	69.70782	133.588	76.878303	0.0587	0.3601	0.5029	0.00E+00			
99.77	3.7733	9.17359	69.66922	133.639	76.906969	0.0587	0.3754	0.5066	0.00E+00			
99.848	3.7733	9.17449	69.67596	133.639	76.90697	0.0587	0.3845	0.4993	0.00E+00			
99.947	3.7728	9.17591	69.68592	133.791	76.992969	0.0588	0.3784	0.5029	0.00E+00			
100.064	3.7726	9.1761	69.687	133.492	76.820974	0.0587	0.3754	0.4968	0.00E+00			
100.176	3.7726	9.17584	69.68502	133.492	76.820975	0.0587	0.3723	0.5005	0.00E+00			
100.279	3.7723	9.17049	69.64376	133.494	76.820976	0.0587	0.3723	0.5042	0.00E+00			
100.369	3.7717	9.17152	69.65061	133.646	76.906974	0.0587	0.3723	0.4993	0.00E+00			
100.441	3.7714	9.17487	69.6754	133.747	76.964307	0.0588	0.3723	0.5005	0.00E+00			
100.506	3.7716	9.1725	69.65791	133.796	76.992973	0.0588	0.3693	0.5005	0.00E+00			
100.573	3.7716	9.1718	69.6525	133.647	76.906976	0.0587	0.3815	0.5005	0.00E+00			
100.643	3.7716	9.16991	69.63807	133.647	76.906976	0.0587	0.3693	0.4981	0.00E+00			
100.728	3.7709	9.17653	69.68709	133.5	76.820979	0.0587	0.3754	0.4993	0.00E+00			
100.826	3.771	9.16234	69.57944	133.65	76.906978	0.0587	0.3693	0.4993	0.00E+00			
100.927	3.7708	9.1629	69.58339	133.651	76.906978	0.0587	0.3754	0.5188	0.00E+00			
101.034	3.7704	9.16629	69.6085	133.752	76.964311	0.0588	0.3723	0.5237	0.00E+00			
101.14	3.7703	9.16526	69.60043	133.503	76.820982	0.0587	0.3754	0.5237	0.00E+00			
101.244	3.77	9.16627	69.60742	133.505	76.820983	0.0587	0.3723	0.5237	0.00E+00			
101.329	3.7702	9.16593	69.60519	133.504	76.820984	0.0587	0.3784	0.481	0.00E+00			
101.398	3.7698	9.16092	69.56662	133.655	76.906982	0.0587	0.3754	0.4785	0.00E+00			
101.457	3.7702	9.15892	69.55208	133.803	76.992981	0.0588	0.3815	0.4822	0.00E+00			
101.52	3.7706	9.15652	69.53457	133.651	76.906983	0.0587	0.3784	0.4797	0.00E+00			
101.588	3.771	9.15451	69.52012	133.799	76.992981	0.0588	0.3723	0.52	0.00E+00			
101.684	3.7707	9.15986	69.56021	133.75	76.964316	0.0588	0.3693	0.52	0.00E+00			
101.786	3.7701	9.15896	69.5521	133.654	76.906985	0.0587	0.3784	0.5237	0.00E+00			
101.883	3.7695	9.15721	69.53791	133.806	76.992984	0.0588	0.3876	0.52	0.00E+00			
101.978	3.7703	9.15278	69.50561	133.653	76.906986	0.0587	0.3693	0.4993	0.00E+00			
102.076	3.7698	9.15539	69.5246	133.804	76.992985	0.0588	0.3815	0.5005	0.00E+00			
102.177	3.7704	9.15061	69.48934	133.802	76.992986	0.0588	0.3754	0.5005	0.00E+00			
102.274	3.7696	9.15449	69.51738	133.805	76.992987	0.0588	0.3662	0.5029	0.00E+00			
102.355	3.7696	9.14942	69.47892	133.456	76.792325	0.0587	0.3662	0.4797	0.00E+00			
102.438	3.7694	9.15117	69.49174	133.657	76.90699	0.0587	0.3693	0.481	0.00E+00			
102.528	3.7688	9.14984	69.48051	133.66	76.90699	0.0587	0.3815	0.4846	0.00E+00			
102.622	3.7691	9.14908	69.47534	133.808	76.992989	0.0588	0.3693	0.4785	0.00E+00			
102.724	3.7686	9.14773	69.46421	133.81	76.99299	0.0588	0.3723	0.5042	0.00E+00			
102.847	3.7685	9.14751	69.46233	133.661	76.906993	0.0587	0.3723	0.4981	0.00E+00			
102.98	3.7682	9.14496	69.44244	133.662	76.906994	0.0587	0.3662	0.5005	0.00E+00			
103.11	3.7686	9.14583	69.44967	133.511	76.820997	0.0587	0.3845	0.5005	0.00E+00			
103.229	3.7679	9.14453	69.43869	133.863	77.02166	0.0588	0.3784	0.5005	0.00E+00			
103.32	3.7681	9.13985	69.40333	133.514	76.820998	0.0587	0.3693	0.5042	0.00E+00			
103.404	3.7684	9.14146	69.41617	133.662	76.906997	0.0587	0.3723	0.4993	0.00E+00			
103.493	3.7684	9.13996	69.40492	133.811	76.992996	0.0588	0.3754	0.5005	0.00E+00			
103.589	3.768	9.14218	69.42089	133.813	76.992997	0.0588	0.3784	0.481	0.00E+00			
103.686	3.768	9.13872	69.39463	133.664	76.906999	0.0587	0.3876	0.4797	0.00E+00			
103.784	3.7679	9.13926	69.39854	133.664	76.907	0.0587	0.3754	0.4797	0.00E+00			
103.89	3.7687	9.13839	69.39349	133.461	76.792337	0.0587	0.3693	0.4834	0.00E+00			
103.992	3.7681	9.14066	69.40951	133.663	76.907001	0.0587	0.3845	0.481	0.00E+00			
104.102	3.7679	9.13407	69.35924	133.813	76.993	0.0588	0.3754	0.4785	0.00E+00			
104.214	3.7679	9.1374	69.3844	133.814	76.993001	0.0588	0.3662	0.4797	0.00E+00			
104.326	3.7685	9.13539	69.37035	133.512	76.821006	0.0587	0.3723	0.4797	0.00E+00			
104.431	3.7679	9.13527	69.36829	133.664	76.907004	0.0587	0.3693	0.5042	0.00E+00			
104.52	3.7678	9.1354	69.36911	133.664	76.907005	0.0587	0.3845	0.4993	0.00E+00			
104.592	3.7687	9.13329	69.35468	133.66	76.907005	0.0587	0.3693	0.5029	0.00E+00			
104.673	3.7684	9.13584	69.37353	133.761	76.964338	0.0588	0.3754	0.4993	0.00E+00			
104.759	3.7686	9.1367	69.38036	133.661	76.907007	0.0587	0.3693	0.5005	0.00E+00			
104.844	3.768	9.13534	69.36907	133.813	76.993006	0.0588	0.3754	0.5029	0.00E+00			
104.938	3.7682	9.13741	69.38501	133.663	76.907008	0.0587	0.3693	0.5005	0.00E+00			
105.03	3.7678	9.13484	69.36474	133.665	76.907009	0.0587	0.3754	0.5029	0.00E+00			
105.126	3.7686	9.12957	69.3264	133.81	76.993008	0.0588	0.3693	0.5005	0.00E+00			
105.224	3.7681	9.13061	69.33333	133.663	76.90701	0.0587	0.3754	0.5005	0.00E+00			
105.339	3.7684	9.13188	69.34344	133.662	76.907011	0.0587	0.3815	0.4993	0.00E+00			
105.459	3.7685	9.13121	69.3385	133.761	76.964344	0.0588	0.3693	0.4993	0.00E+00			
105.567	3.7686	9.13331	69.35458	133.511	76.821015	0.0587	0.3906	0.4785	0.00E+00			
105.648	3.7688	9.13057	69.33421	133.66	76.907013	0.0587	0.3815	0.4797	0.00E+00			
105.721	3.7685	9.12913	69.32281	133.661	76.907014	0.0587	0.3723	0.4797	0.00E+00			
105.795	3.7691	9.1271	69.3084	133.658	76.907014	0.0587	0.3723	0.4797	0.00E+00			
105.883	3.7684	9.13173	69.3424	133.661	76.907015	0.0587	0.3845	0.5005	0.00E+00			
105.979	3.7682	9.12872	69.31914	133.812	76.993014	0.0588	0.3845	0.4993	0.00E+00			
106.066	3.7677	9.13094	69.33502	133.615	76.87835	0.0587	0.3723	0.5005	0.00E+00			
106.144	3.7679	9.1302	69.32971	133.664	76.907017	0.0587	0.3845	0.5066	0.00E+00			
106.227	3.7672	9.12848	69.31538	133.667	76.907018	0.0587	0.3723	0.4981	0.00E+00			
106.326	3.7669	9.12866	69.31629	133.669	76.907018	0.0587	0.3784	0.4981	0.00E+00			
106.44	3.7666	9.13085	69.33242	133.67	76.907019	0.0587	0.3876	0.5005	0.00E+00			
106.54	3.7664	9.13023	69.32731	133.521	76.821022	0.0587	0.3815	0.4993	0.00E+00			
106.607	3.7663	9.12794	69.30981	133.671	76.907021	0.0587	0.3723	0.5005	0.00E+00			
106.66	3.7669	9.12628	69.29823	133.669	76.907021	0.0587	0.3693	0.4993	0.00E+00			
106.731	3.7664	9.12528	69.28982	133.87	77.021686	0.0588	0.3723	0.5005	0.00E+00			
106.829	3.7665	9.12936	69.3209	133.67	76.907022	0.0587	0.3815	0.5005	0.00E+00			
106.93	3.7663	9.12674	69.3007	133.671	76.907023	0.0587	0.3784	0.5029	0.00E+00			
107.015	3.7658	9.12222	69.26527	133.524	76.821026	0.0587	0.3693	0.5005	0.00E+00			
107.101	3.7663	9.12457	69.28416	133.671	76.907024	0.0587	0.3815	0.5029	0.00E+00			
107.187	3.7659	9.12318	69.27288	133.673	76.907025	0.0587	0.3815	0.5029	0.00E+00			
107.282	3.7662	9.12045	69.25263	133.672	76.907025	0.0587	0.3754	0.5005	0.00E+00			
107.387	3.7661	9.12298	69.2717	133.772	76.964358	0.0588	0.3693	0.4956	0.00E+00			
107.476	3.7662	9.12188	69.26346	133.672	76.907027	0.0587	0.3693	0.4993	0.00E+00			
107.551	3.7656	9.11932	69.24302	133.824	76.993026	0.0588	0.3754	0.5029	0.00E+00			
107.622	3.7667	9.11915	69.24367	133.67	76.907028	0.0587	0.3845	0.4822	0.00E+00			
107.708	3.7663	9.11895	69.24144	133.671	76.907029	0.0587	0.3693	0.481	0.00E+00			
107.808	3.766	9.11715	69.22727	133.673	76.907029	0.0587	0.3815	0.481	0.00E+00			
107.918	3.7663	9.1192	69.24336	133.821	76.993028	0.0588	0.3845	0.481	0.00E+00			
108.017	3.7665	9.1153	69.21409	133.67	76.907031	0.0587	0.3815	0.5005	0.00E+00			
108.109	3.7667	9.11497	69.21192	133.62	76.878365	0.0587	0.3754	0.5029	0.00E+00			
108.204	3.7667	9.1119	69.18864	133.819	76.99303	0.0588	0.3693	0.4981	0.00E+00			
108.313	3.7667	9.11123	69.1836	133.52	76.821035	0.0587	0.3723	0.4993	0.00E+00			
108.419	3.7664	9.10786	69.15741	133.671	76.907034	0.0587	0.3723	0.4968	0.00E+00			
108.517	3.7669	9.10825	69.16132	133.818	76.993032	0.0588	0.3632	0.5005	0.00E+00			
108.597	3.7664	9.10926	69.16809	133.521	76.821037	0.0587	0.3723	0.5042	0.00E+00			
108.675	3.7673	9.10954	69.17182	133.667	76.907035	0.0587	0.3815	0.5005	0.00E+00			
108.772	3.7665	9.10388	69.12743	133.82	76.993034	0.0588	0.3754	0.4797	0.00E+00			
108.872	3.7668	9.10394	69.12834	133.47	76.792373	0.0587	0.3723	0.481	0.00E+00			
108.985	3.7666	9.10411	69.12938	133.67	76.907038	0.0587	0.3662	0.4797	0.00E+00			
109.116	3.7664	9.10552	69.13963	133.82	76.993037	0.0588	0.3723	0.4797	0.00E+00			
109.236	3.7663	9.10448	69.13168	133.671	76.90704	0.0587	0.3815	0.481	0.00E+00			
109.343	3.766	9.10309	69.12058	133.822	76.993039	0.0588	0.3784	0.481	0.00E+00			
109.44	3.7663	9.10077	69.10335	133.671	76.907041	0.0587	0.3815	0.4822	0.00E+00			
109.54	3.766	9.09778	69.08012	133.822	76.99304	0.0588	0.3815	0.4749	0.00E+00			
109.652	3.7656	9.10159	69.10831	133.774	76.964375	0.0588	0.3723	0.4822	0.00E+00			
109.767	3.7655	9.10096	69.10333	133.675	76.907044	0.0587	0.3784	0.481	0.00E+00			
109.877	3.7657	9.09785	69.08018	133.674	76.907044	0.0587	0.3693	0.4797	0.00E+00			
109.976	3.766	9.10028	69.0992	133.523	76.821047	0.0587	0.3845	0.4797	0.00E+00			
110.074	3.7658	9.09568	69.06387	133.823	76.993044	0.0588	0.3693	0.481	0.00E+00			
110.184	3.7657	9.09782	69.07997	133.824	76.993045	0.0588	0.3754	0.4749	0.00E+00			
110.303	3.7656	9.09641	69.06898	133.675	76.907047	0.0587	0.3723	0.481	0.00E+00			
110.439	3.7658	9.09611	69.0672	133.674	76.907048	0.0587	0.3754	0.481	0.00E+00			
110.569	3.7656	9.09832	69.08349	133.774	76.964381	0.0588	0.3815	0.4822	0.00E+00			
110.675	3.7661	9.09872	69.08748	133.822	76.993048	0.0588	0.3723	0.4822	0.00E+00			
110.764	3.7659	9.09291	69.043	133.823	76.993049	0.0588	0.3845	0.4834	0.00E+00			
110.853	3.7658	9.09583	69.06495	133.674	76.907051	0.0587	0.3815	0.4785	0.00E+00			
110.968	3.7656	9.09403	69.05091	133.824	76.993051	0.0588	0.3693	0.4993	0.00E+00			
111.096	3.7656	9.09655	69.07019	133.824	76.993051	0.0588	0.3754	0.5042	0.00E+00			
111.211	3.7654	9.09356	69.04709	133.675	76.907054	0.0587	0.3723	0.5029	0.00E+00			
111.308	3.7657	9.09283	69.04193	133.624	76.878389	0.0587	0.3754	0.4993	0.00E+00			
111.399	3.7651	9.09108	69.02767	133.677	76.907055	0.0587	0.3693	0.5237	0.00E+00			
111.503	3.7654	9.09512	69.05881	133.676	76.907056	0.0587	0.3723	0.52	0.00E+00			
111.631	3.7657	9.09161	69.03281	133.824	76.993055	0.0588	0.3754	0.5237	0.00E+00			
111.773	3.7657	9.09338	69.04619	133.674	76.907058	0.0587	0.3784	0.5225	0.00E+00			
111.902	3.7652	9.09605	69.06548	133.677	76.907059	0.0587	0.3754	0.4797	0.00E+00			
112.007	3.7654	9.09175	69.03323	133.676	76.90706	0.0587	0.3693	0.481	0.00E+00			
112.098	3.7654	9.09066	69.02499	133.825	76.993059	0.0588	0.3693	0.4822	0.00E+00			
112.187	3.7654	9.09196	69.03487	133.875	77.021726	0.0588	0.3723	0.4785	0.00E+00			
112.291	3.7651	9.09057	69.02374	133.677	76.907062	0.0587	0.3845	0.4981	0.00E+00			
112.4	3.7651	9.0915	69.03078	133.677	76.907063	0.0587	0.3723	0.4981	0.00E+00			
112.507	3.7652	9.08801	69.00457	133.826	76.993062	0.0588	0.3693	0.5042	0.00E+00			
112.616	3.7653	9.08694	68.9965	133.527	76.821066	0.0587	0.3693	0.5042	0.00E+00			
112.718	3.765	9.08951	69.01556	133.528	76.821067	0.0587	0.3815	0.4785	0.00E+00			
112.82	3.7651	9.08524	68.98327	133.677	76.907066	0.0587	0.3815	0.481	0.00E+00			
112.932	3.765	9.08779	69.00242	133.777	76.964399	0.0588	0.3723	0.4773	0.00E+00			
113.045	3.7649	9.08157	68.95512	133.827	76.993066	0.0588	0.3693	0.481	0.00E+00			
113.155	3.7651	9.08086	68.95008	133.677	76.907068	0.0587	0.3845	0.4785	0.00E+00			
113.263	3.7654	9.08172	68.95711	133.975	77.079066	0.0589	0.3754	0.4797	0.00E+00			
113.354	3.7646	9.08044	68.94586	133.68	76.90707	0.0587	0.3815	0.4797	0.00E+00			
113.433	3.7649	9.07648	68.91637	133.678	76.90707	0.0587	0.3723	0.4846	0.00E+00			
113.516	3.7652	9.07889	68.93526	133.826	76.993069	0.0588	0.3693	0.4993	0.00E+00			
113.615	3.7645	9.08355	68.96939	133.68	76.907072	0.0587	0.3754	0.5042	0.00E+00			
113.718	3.765	9.07561	68.90991	133.628	76.878406	0.0587	0.3754	0.5005	0.00E+00			
113.831	3.7648	9.07697	68.92	133.828	76.993071	0.0588	0.3754	0.5005	0.00E+00			
113.958	3.7648	9.07674	68.91814	133.679	76.907074	0.0587	0.3784	0.5005	0.00E+00			
114.081	3.7649	9.07048	68.87093	133.827	76.993073	0.0588	0.3784	0.5029	0.00E+00			
114.202	3.765	9.06981	68.86599	133.677	76.907076	0.0587	0.3815	0.5029	0.00E+00			
114.317	3.7651	9.07591	68.91236	133.677	76.907077	0.0587	0.3784	0.5005	0.00E+00			
114.417	3.7647	9.06936	68.86192	133.829	76.993076	0.0588	0.3754	0.4981	0.00E+00			
114.505	3.7647	9.06907	68.8597	133.679	76.907078	0.0587	0.3601	0.5005	0.00E+00			
114.576	3.7644	9.06125	68.79992	133.78	76.964411	0.0588	0.3815	0.5005	0.00E+00			
114.656	3.7648	9.06921	68.86107	133.978	77.079076	0.0589	0.3723	0.5042	0.00E+00			
114.76	3.7645	9.0714	68.87713	133.68	76.90708	0.0587	0.3723	0.5005	0.00E+00			
114.875	3.7641	9.07044	68.86911	133.831	76.993079	0.0588	0.3754	0.4981	0.00E+00			
114.992	3.7641	9.06581	68.83392	133.682	76.907082	0.0587	0.3693	0.4993	0.00E+00			
115.103	3.7638	9.06361	68.8168	133.683	76.907082	0.0587	0.3723	0.5029	0.00E+00			
115.208	3.7644	9.06322	68.81475	133.83	76.993081	0.0588	0.3693	0.5188	0.00E+00			
115.307	3.7647	9.06486	68.82773	133.629	76.878418	0.0587	0.3784	0.52	0.00E+00			
115.404	3.7643	9.06505	68.82861	133.83	76.993083	0.0588	0.3754	0.52	0.00E+00			
115.491	3.7642	9.066	68.83545	133.681	76.907085	0.0587	0.3723	0.52	0.00E+00			
115.571	3.7644	9.06284	68.812	133.83	76.993084	0.0588	0.3754	0.5005	0.00E+00			
115.649	3.7646	9.06251	68.8097	133.53	76.821088	0.0587	0.3723	0.5005	0.00E+00			
115.728	3.7646	9.0626	68.81042	133.68	76.907087	0.0587	0.3662	0.5005	0.00E+00			
115.823	3.7636	9.05975	68.78711	133.684	76.907088	0.0587	0.3754	0.5005	0.00E+00			
115.948	3.7632	9.06279	68.8094	133.985	77.079086	0.0589	0.3723	0.5029	0.00E+00			
116.084	3.7633	9.06093	68.79553	133.635	76.878424	0.0587	0.3754	0.5029	0.00E+00			
116.208	3.7632	9.05912	68.78155	133.686	76.907091	0.0587	0.3815	0.5005	0.00E+00			
116.31	3.763	9.0553	68.75227	133.836	76.99309	0.0588	0.3815	0.4981	0.00E+00			
116.402	3.7626	9.05433	68.74403	133.689	76.907092	0.0587	0.3845	0.5188	0.00E+00			
116.474	3.7625	9.05484	68.74771	133.839	76.993091	0.0588	0.3815	0.52	0.00E+00			
116.532	3.7626	9.0509	68.71803	133.838	76.993091	0.0588	0.3784	0.5237	0.00E+00			
116.591	3.7626	9.05495	68.74878	133.838	76.993092	0.0588	0.3784	0.52	0.00E+00			
116.673	3.7622	9.05354	68.73743	133.89	77.021759	0.0588	0.3784	0.52	0.00E+00			
116.776	3.7624	9.05403	68.7414	133.69	76.907095	0.0587	0.3723	0.5188	0.00E+00			
116.894	3.762	9.05465	68.74549	133.841	76.993094	0.0588	0.3723	0.5188	0.00E+00			
117.01	3.7624	9.05153	68.72237	133.69	76.907097	0.0587	0.3693	0.5188	0.00E+00			
117.127	3.7622	9.05291	68.73251	133.84	76.993096	0.0588	0.3723	0.4993	0.00E+00			
117.249	3.7627	9.05094	68.7185	133.688	76.907098	0.0587	0.3693	0.5005	0.00E+00			
117.369	3.7616	9.04936	68.70448	133.843	76.993098	0.0588	0.3754	0.5005	0.00E+00			
117.487	3.7617	9.05027	68.7116	133.693	76.9071	0.0587	0.3723	0.5029	0.00E+00			
117.582	3.7622	9.04986	68.70944	133.641	76.878435	0.0587	0.3815	0.5005	0.00E+00			
117.656	3.762	9.04721	68.68896	133.691	76.907101	0.0587	0.3723	0.4993	0.00E+00			
117.717	3.7627	9.04751	68.69254	133.838	76.9931	0.0588	0.3662	0.5005	0.00E+00			
117.8	3.7626	9.04725	68.69027	133.838	76.993101	0.0588	0.3845	0.5005	0.00E+00			
117.907	3.7619	9.04715	68.68822	133.842	76.993102	0.0588	0.3754	0.4968	0.00E+00			
118.02	3.7621	9.04484	68.67111	133.841	76.993102	0.0588	0.3845	0.5005	0.00E+00			
118.132	3.7622	9.04376	68.66306	133.541	76.821107	0.0587	0.3723	0.4993	0.00E+00			
118.246	3.7619	9.04317	68.65806	133.792	76.964438	0.0588	0.3815	0.4981	0.00E+00			
118.377	3.7616	9.04022	68.63506	133.694	76.907107	0.0587	0.3723	0.5005	0.00E+00			
118.516	3.7613	9.04204	68.64842	133.844	76.993106	0.0588	0.3815	0.5005	0.00E+00			
118.644	3.7616	9.04053	68.6375	133.693	76.907109	0.0587	0.3815	0.4968	0.00E+00			
118.756	3.7607	9.03927	68.62642	133.847	76.993108	0.0588	0.3693	0.5005	0.00E+00			
118.848	3.7614	9.03843	68.62121	133.844	76.993109	0.0588	0.3845	0.5005	0.00E+00			
118.935	3.761	9.03943	68.62804	133.696	76.907111	0.0587	0.3723	0.5005	0.00E+00			
119.021	3.7611	9.03792	68.61673	133.845	76.99311	0.0588	0.3723	0.4968	0.00E+00			
119.116	3.7606	9.03973	68.62969	133.897	77.021777	0.0588	0.3754	0.5042	0.00E+00			
119.218	3.7605	9.0363	68.60341	133.848	76.993111	0.0588	0.3784	0.4981	0.00E+00			
119.329	3.7605	9.03442	68.5893	134.147	77.16511	0.0589	0.3815	0.4981	0.00E+00			
119.449	3.7604	9.03699	68.60854	133.699	76.907115	0.0587	0.3754	0.5005	0.00E+00			
119.573	3.7605	9.03234	68.57339	133.848	76.993114	0.0588	0.3754	0.5005	0.00E+00			
119.696	3.7606	9.03246	68.5745	133.698	76.907116	0.0587	0.3754	0.5005	0.00E+00			
119.818	3.7616	9.03438	68.59073	133.843	76.993115	0.0588	0.3754	0.4993	0.00E+00			
119.923	3.7616	9.03331	68.5826	133.843	76.993116	0.0588	0.3815	0.4993	0.00E+00			
120.022	3.7607	9.03124	68.56536	133.648	76.878453	0.0587	0.3754	0.5005	0.00E+00			
120.124	3.7606	9.03178	68.56932	133.847	76.993118	0.0588	0.3754	0.5078	0.00E+00			
120.222	3.761	9.02943	68.55207	133.846	76.993119	0.0588	0.3754	0.5042	0.00E+00			
120.313	3.7613	9.02946	68.55289	133.844	76.993119	0.0588	0.3723	0.5005	0.00E+00			
120.41	3.7611	9.02922	68.55075	133.995	77.079119	0.0589	0.3754	0.5066	0.00E+00			
120.512	3.7613	9.02412	68.51238	133.695	76.907122	0.0587	0.3845	0.4981	0.00E+00			
120.629	3.7608	9.02876	68.54669	133.847	76.993122	0.0588	0.3754	0.5005	0.00E+00			
120.764	3.7602	9.02905	68.54791	133.799	76.964456	0.0588	0.3845	0.4981	0.00E+00			
120.896	3.7599	9.0305	68.55819	133.701	76.907125	0.0587	0.3723	0.4956	0.00E+00			
121.005	3.7598	9.02346	68.50475	134.001	77.079123	0.0589	0.3662	0.4993	0.00E+00			
121.102	3.7597	9.02799	68.53889	133.852	76.993125	0.0588	0.3693	0.5005	0.00E+00			
121.195	3.7601	9.02364	68.50647	133.551	76.821129	0.0587	0.3906	0.5005	0.00E+00			
121.283	3.7595	9.02349	68.50424	133.703	76.907128	0.0587	0.3754	0.5005	0.00E+00			
121.369	3.7597	9.02471	68.51409	134.151	77.165125	0.0589	0.3723	0.5188	0.00E+00			
121.469	3.7593	9.02932	68.54826	133.704	76.90713	0.0587	0.3754	0.5237	0.00E+00			
121.571	3.7597	9.02498	68.51593	133.652	76.878464	0.0587	0.3754	0.52	0.00E+00			
121.679	3.7595	9.02514	68.51691	133.853	76.993129	0.0588	0.3784	0.5225	0.00E+00			
121.785	3.7594	9.02929	68.54811	133.853	76.99313	0.0588	0.3723	0.5005	0.00E+00			
121.891	3.7592	9.02468	68.51278	134.004	77.07913	0.0589	0.3723	0.5005	0.00E+00			
122.008	3.7592	9.02482	68.51385	133.854	76.993132	0.0588	0.3754	0.5005	0.00E+00			
122.13	3.7589	9.02384	68.50588	134.005	77.079132	0.0589	0.3723	0.5005	0.00E+00			
122.241	3.7591	9.02632	68.52503	133.705	76.907135	0.0587	0.3723	0.5005	0.00E+00			
122.332	3.7586	9.02614	68.52283	133.657	76.87847	0.0587	0.3662	0.5005	0.00E+00			
122.407	3.7586	9.02105	68.4842	133.857	76.993135	0.0588	0.3754	0.5005	0.00E+00			
122.481	3.7588	9.0223	68.49394	133.856	76.993135	0.0588	0.3784	0.4993	0.00E+00			
122.561	3.7589	9.02196	68.49165	133.855	76.993136	0.0588	0.3723	0.5225	0.00E+00			
122.65	3.7588	9.0221	68.49246	133.707	76.907138	0.0587	0.3662	0.52	0.00E+00			
122.74	3.7588	9.02341	68.50234	133.557	76.821141	0.0587	0.3693	0.52	0.00E+00			
122.821	3.759	9.01946	68.47283	133.556	76.821141	0.0587	0.3754	0.52	0.00E+00			
122.914	3.7587	9.01725	68.45553	133.856	76.993139	0.0588	0.3723	0.5225	0.00E+00			
123.016	3.7588	9.01815	68.4625	134.055	77.107804	0.0589	0.3662	0.5237	0.00E+00			
123.14	3.7589	9.02424	68.50899	133.855	76.99314	0.0588	0.3815	0.52	0.00E+00			
123.263	3.7587	9.02206	68.49196	133.707	76.907143	0.0587	0.3662	0.5188	0.00E+00			
123.371	3.7587	9.02059	68.48084	133.707	76.907143	0.0587	0.3815	0.5029	0.00E+00			
123.445	3.759	9.01941	68.47244	133.855	76.993142	0.0588	0.3754	0.4993	0.00E+00			
123.513	3.759	9.0175	68.45794	133.705	76.907144	0.0587	0.3754	0.5029	0.00E+00			
123.595	3.7589	9.0196	68.4738	134.005	77.079142	0.0589	0.3784	0.4981	0.00E+00			
123.686	3.7585	9.02022	68.47765	133.907	77.02181	0.0588	0.3723	0.5042	0.00E+00			
123.768	3.7582	9.01441	68.43302	134.158	77.165143	0.0589	0.3723	0.4981	0.00E+00			
123.847	3.7585	9.01802	68.46096	133.858	76.993145	0.0588	0.3693	0.5005	0.00E+00			
123.951	3.7584	9.02016	68.47702	133.559	76.82115	0.0587	0.3723	0.5005	0.00E+00			
124.072	3.7582	9.01956	68.47208	134.008	77.079146	0.0589	0.3815	0.4981	0.00E+00			
124.192	3.7579	9.01697	68.45199	133.86	76.993148	0.0588	0.3784	0.5029	0.00E+00			
124.297	3.7579	9.01511	68.43781	133.711	76.90715	0.0587	0.3723	0.5029	0.00E+00			
124.378	3.758	9.01279	68.4204	133.71	76.907151	0.0587	0.3693	0.4993	0.00E+00			
124.45	3.7574	9.01381	68.4271	133.812	76.964484	0.0588	0.3723	0.5225	0.00E+00			
124.513	3.7573	9.01072	68.40347	133.863	76.99315	0.0588	0.3754	0.5225	0.00E+00			
124.585	3.7576	9.00994	68.39807	133.712	76.907152	0.0587	0.3784	0.5176	0.00E+00			
124.666	3.7574	9.00928	68.39275	134.012	77.07915	0.0589	0.3754	0.52	0.00E+00			
124.746	3.7567	9.01074	68.40256	133.866	76.993152	0.0588	0.3754	0.52	0.00E+00			
124.825	3.7569	9.00401	68.35185	134.014	77.079152	0.0589	0.3723	0.52	0.00E+00			
124.922	3.757	9.00888	68.38903	134.014	77.079152	0.0589	0.3784	0.52	0.00E+00			
125.026	3.757	9.00663	68.37181	133.864	76.993154	0.0588	0.3723	0.52	0.00E+00			
125.125	3.7576	9.0038	68.35153	133.812	76.964489	0.0588	0.3662	0.5078	0.00E+00			
125.213	3.7574	9.00356	68.34931	133.862	76.993155	0.0588	0.3601	0.5029	0.00E+00			
125.294	3.7573	8.99969	68.31979	133.863	76.993156	0.0588	0.3784	0.5005	0.00E+00			
125.365	3.7573	8.99818	68.30833	133.863	76.993157	0.0588	0.3693	0.5029	0.00E+00			
125.445	3.7573	8.99908	68.3151	133.713	76.907159	0.0587	0.3815	0.5188	0.00E+00			
125.538	3.7574	9.00076	68.32805	133.862	76.993158	0.0588	0.3723	0.52	0.00E+00			
125.626	3.7575	8.99248	68.26531	133.862	76.993158	0.0588	0.3754	0.5225	0.00E+00			
125.697	3.7578	8.99409	68.27805	133.91	77.021825	0.0588	0.3754	0.52	0.00E+00			
125.762	3.7577	8.9914	68.25746	133.861	76.993159	0.0588	0.3754	0.52	0.00E+00			
125.833	3.7572	8.9916	68.2581	133.863	76.99316	0.0588	0.3784	0.5188	0.00E+00			
125.932	3.7572	8.99013	68.2469	133.714	76.907162	0.0587	0.3723	0.52	0.00E+00			
126.044	3.7572	8.98867	68.23581	133.714	76.907163	0.0587	0.3754	0.5225	0.00E+00			
126.138	3.7578	8.98584	68.21547	133.861	76.993162	0.0588	0.3693	0.5164	0.00E+00			
126.212	3.7569	8.98654	68.21917	133.715	76.907164	0.0587	0.3693	0.5005	0.00E+00			
126.281	3.7574	8.9845	68.20467	133.862	76.993163	0.0588	0.3754	0.4981	0.00E+00			
126.357	3.7575	8.98259	68.19022	133.912	77.02183	0.0588	0.3815	0.4993	0.00E+00			
126.453	3.7576	8.98227	68.18806	133.712	76.907166	0.0587	0.3754	0.5078	0.00E+00			
126.557	3.7572	8.97892	68.16176	133.714	76.907167	0.0587	0.3662	0.52	0.00E+00			
126.657	3.7569	8.98029	68.17175	133.715	76.907168	0.0587	0.3693	0.5225	0.00E+00			
126.746	3.757	8.97638	68.14229	133.864	76.993167	0.0588	0.3784	0.5225	0.00E+00			
126.833	3.7574	8.9772	68.14913	133.863	76.993167	0.0588	0.3754	0.5225	0.00E+00			
126.936	3.757	8.97901	68.16217	133.864	76.993168	0.0588	0.3754	0.5225	0.00E+00			
127.044	3.7568	8.97002	68.09354	133.915	77.021835	0.0588	0.3693	0.52	0.00E+00			
127.162	3.7568	8.97972	68.16722	133.865	76.99317	0.0588	0.3815	0.5237	0.00E+00			
127.28	3.7575	8.97492	68.13198	133.713	76.907172	0.0587	0.3815	0.5188	0.00E+00			
127.38	3.7568	8.97041	68.09657	133.716	76.907173	0.0587	0.3723	0.5005	0.00E+00			
127.474	3.757	8.96729	68.07321	134.014	77.079171	0.0589	0.3693	0.4993	0.00E+00			
127.572	3.7566	8.96313	68.0408	133.717	76.907174	0.0587	0.3723	0.4993	0.00E+00			
127.675	3.7567	8.9688	68.0841	133.866	76.993173	0.0588	0.3723	0.5029	0.00E+00			
127.792	3.7564	8.96343	68.04278	133.867	76.993174	0.0588	0.3723	0.4797	0.00E+00			
127.902	3.7565	8.96553	68.0589	133.917	77.021841	0.0588	0.3845	0.4822	0.00E+00			
128.004	3.7565	8.96127	68.02653	133.867	76.993176	0.0588	0.3815	0.4785	0.00E+00			
128.106	3.7564	8.9638	68.04561	133.867	76.993177	0.0588	0.3754	0.4858	0.00E+00			
128.211	3.757	8.95779	68.00116	134.014	77.079176	0.0589	0.3693	0.5005	0.00E+00			
128.311	3.7571	8.96029	68.02022	133.864	76.993178	0.0588	0.3723	0.4981	0.00E+00			
128.415	3.7572	8.95839	68.00603	133.863	76.993179	0.0588	0.3723	0.5005	0.00E+00			
128.524	3.7568	8.95941	68.01306	133.865	76.99318	0.0588	0.3784	0.5029	0.00E+00			
128.629	3.757	8.95789	68.0019	133.914	77.021847	0.0588	0.3784	0.5005	0.00E+00			
128.734	3.757	8.95842	68.00587	133.715	76.907183	0.0587	0.3784	0.5005	0.00E+00			
128.833	3.7567	8.9578	68.00071	134.165	77.16518	0.0589	0.3693	0.5005	0.00E+00			
128.929	3.757	8.95785	68.00157	133.864	76.993182	0.0588	0.3754	0.4981	0.00E+00			
129.027	3.7573	8.9559	67.98732	134.162	77.165181	0.0589	0.3662	0.5005	0.00E+00			
129.139	3.757	8.9577	68.00043	133.864	76.993184	0.0588	0.3693	0.5005	0.00E+00			
129.258	3.7571	8.96062	68.0227	133.864	76.993185	0.0588	0.3754	0.5005	0.00E+00			
129.372	3.7568	8.95962	68.01464	133.865	76.993186	0.0588	0.3723	0.5005	0.00E+00			
129.462	3.7568	8.95853	68.00637	133.915	77.021853	0.0588	0.3662	0.4993	0.00E+00			
129.543	3.7564	8.95593	67.98592	133.867	76.993187	0.0588	0.3754	0.5005	0.00E+00			
129.639	3.756	8.95933	68.01099	133.869	76.993188	0.0588	0.3784	0.5005	0.00E+00			
129.756	3.7559	8.96148	68.02718	133.869	76.993189	0.0588	0.3815	0.4993	0.00E+00			
129.872	3.7563	8.95833	68.00401	134.017	77.079188	0.0589	0.3845	0.4797	0.00E+00			
129.977	3.7562	8.96048	68.02009	133.868	76.99319	0.0588	0.3723	0.481	0.00E+00			
130.067	3.7561	8.95822	68.00274	133.869	76.993191	0.0588	0.3845	0.4785	0.00E+00			
130.157	3.7562	8.9595	68.01263	133.868	76.993192	0.0588	0.3937	0.4797	0.00E+00			
130.252	3.7561	8.96123	68.02559	133.918	77.021858	0.0588	0.3693	0.5029	0.00E+00			
130.348	3.7559	8.95781	67.99921	133.87	76.993193	0.0588	0.3754	0.4981	0.00E+00			
130.442	3.756	8.96347	68.04244	133.869	76.993194	0.0588	0.3815	0.5029	0.00E+00			
130.542	3.756	8.9608	68.02215	133.719	76.907196	0.0587	0.3754	0.4993	0.00E+00			
130.646	3.7564	8.96124	68.02611	133.867	76.993195	0.0588	0.3815	0.481	0.00E+00			
130.748	3.7565	8.96212	68.03309	133.867	76.993196	0.0588	0.3876	0.4785	0.00E+00			
130.849	3.7564	8.95829	68.00372	133.718	76.907198	0.0587	0.3723	0.4822	0.00E+00			
130.945	3.7568	8.95751	67.99853	133.816	76.964531	0.0588	0.3662	0.4797	0.00E+00			
131.04	3.7568	8.9592	68.01149	133.865	76.993198	0.0588	0.3845	0.481	0.00E+00			
131.14	3.7568	8.95974	68.01542	133.716	76.9072	0.0587	0.3662	0.4822	0.00E+00			
131.245	3.7568	8.95626	67.98912	133.865	76.993199	0.0588	0.3754	0.4834	0.00E+00			
131.353	3.7565	8.95886	68.00826	133.867	76.9932	0.0588	0.3754	0.4797	0.00E+00			
131.457	3.7571	8.95884	68.0092	134.014	77.0792	0.0589	0.3815	0.5005	0.00E+00			
131.552	3.7569	8.95699	67.99491	133.865	76.993201	0.0588	0.3693	0.5005	0.00E+00			
131.639	3.7569	8.95551	67.98359	133.865	76.993202	0.0588	0.3754	0.5005	0.00E+00			
131.738	3.7565	8.95731	67.99659	133.817	76.964537	0.0588	0.3662	0.4968	0.00E+00			
131.843	3.7564	8.95666	67.99147	133.867	76.993204	0.0588	0.3815	0.4822	0.00E+00			
131.94	3.7566	8.95633	67.98932	133.866	76.993204	0.0588	0.3693	0.4834	0.00E+00			
132.029	3.7566	8.95484	67.97801	133.717	76.907206	0.0587	0.3784	0.4822	0.00E+00			
132.127	3.7569	8.95728	67.99706	134.015	77.079204	0.0589	0.3693	0.4797	0.00E+00			
132.236	3.7566	8.95429	67.97381	133.717	76.907208	0.0587	0.3693	0.5005	0.00E+00			
132.36	3.7564	8.95449	67.97493	133.718	76.907209	0.0587	0.3723	0.4981	0.00E+00			
132.479	3.7564	8.95423	67.97298	133.817	76.964542	0.0588	0.3754	0.4968	0.00E+00			
132.587	3.7563	8.95438	67.97395	133.868	76.993209	0.0588	0.3662	0.5042	0.00E+00			
132.682	3.7564	8.95407	67.97177	134.166	77.165208	0.0589	0.3693	0.5005	0.00E+00			
132.779	3.7561	8.95345	67.96659	133.869	76.99321	0.0588	0.3754	0.5005	0.00E+00			
132.885	3.7565	8.95428	67.9736	133.867	76.993211	0.0588	0.3754	0.5005	0.00E+00			
132.997	3.7561	8.95292	67.9625	133.869	76.993212	0.0588	0.3662	0.5005	0.00E+00			
133.107	3.7559	8.95151	67.95137	134.019	77.079212	0.0589	0.3754	0.4834	0.00E+00			
133.204	3.7563	8.94993	67.94013	133.718	76.907215	0.0587	0.3754	0.4834	0.00E+00			
133.295	3.756	8.95251	67.95912	133.67	76.87855	0.0587	0.3815	0.4834	0.00E+00			
133.399	3.7563	8.95135	67.95097	133.718	76.907216	0.0587	0.3723	0.4846	0.00E+00			
133.509	3.7556	8.95364	67.9671	133.871	76.993216	0.0588	0.3754	0.4822	0.00E+00			
133.613	3.7555	8.95259	67.95895	134.021	77.079216	0.0589	0.3723	0.4797	0.00E+00			
133.712	3.756	8.95299	67.96287	134.019	77.079216	0.0589	0.3845	0.481	0.00E+00			
133.807	3.7561	8.95389	67.96978	133.719	76.907219	0.0587	0.3784	0.4822	0.00E+00			
133.904	3.7559	8.95046	67.9434	133.87	76.993219	0.0588	0.3693	0.5029	0.00E+00			
134.012	3.7559	8.95018	67.94134	133.82	76.964553	0.0588	0.3693	0.5029	0.00E+00			
134.117	3.7556	8.95237	67.95743	133.721	76.907222	0.0587	0.3754	0.5005	0.00E+00			
134.22	3.7556	8.9481	67.92504	133.871	76.993221	0.0588	0.3693	0.4993	0.00E+00			
134.319	3.7561	8.95009	67.94108	133.869	76.993222	0.0588	0.3754	0.4834	0.00E+00			
134.415	3.7559	8.95107	67.948	133.72	76.907224	0.0587	0.3693	0.481	0.00E+00			
134.521	3.7558	8.95042	67.94289	133.87	76.993223	0.0588	0.3723	0.4797	0.00E+00			
134.631	3.7558	8.95332	67.96508	134.02	77.079223	0.0589	0.3754	0.4773	0.00E+00			
134.731	3.7557	8.94948	67.93569	133.87	76.993225	0.0588	0.3815	0.5042	0.00E+00			
134.813	3.7562	8.95146	67.95158	133.818	76.964559	0.0588	0.3723	0.5042	0.00E+00			
134.892	3.7561	8.948	67.92502	133.719	76.907227	0.0587	0.3754	0.4968	0.00E+00			
134.995	3.7556	8.94902	67.93201	134.02	77.079225	0.0589	0.3723	0.4981	0.00E+00			
135.109	3.7555	8.94799	67.92395	133.722	76.907229	0.0587	0.3693	0.4846	0.00E+00			
135.213	3.7557	8.95006	67.94003	134.02	77.079227	0.0589	0.3784	0.4749	0.00E+00			
135.31	3.7557	8.94818	67.92575	133.871	76.993229	0.0588	0.3754	0.481	0.00E+00			
135.399	3.756	8.94742	67.92049	133.869	76.993229	0.0588	0.3662	0.4834	0.00E+00			
135.492	3.7557	8.95038	67.94254	133.87	76.99323	0.0588	0.3754	0.5005	0.00E+00			
135.587	3.756	8.94843	67.92825	133.919	77.021897	0.0588	0.3754	0.4968	0.00E+00			
135.69	3.7562	8.9493	67.93523	134.018	77.07923	0.0589	0.3754	0.4993	0.00E+00			
135.795	3.7563	8.94902	67.93314	133.718	76.907234	0.0587	0.3754	0.4993	0.00E+00			
135.897	3.7559	8.94882	67.93104	134.019	77.079232	0.0589	0.3845	0.481	0.00E+00			
135.994	3.7558	8.94777	67.92282	134.02	77.079233	0.0589	0.3693	0.4834	0.00E+00			
136.082	3.7561	8.94502	67.9024	133.719	76.907236	0.0587	0.3723	0.481	0.00E+00			
136.174	3.7561	8.94552	67.90625	133.869	76.993235	0.0588	0.3723	0.481	0.00E+00			
136.273	3.7555	8.94538	67.90411	133.922	77.021902	0.0588	0.3632	0.4785	0.00E+00			
136.374	3.7553	8.94833	67.92623	133.872	76.993237	0.0588	0.3784	0.481	0.00E+00			
136.469	3.7556	8.94439	67.89679	133.871	76.993237	0.0588	0.3693	0.4834	0.00E+00			
136.563	3.7556	8.94449	67.89764	133.871	76.993238	0.0588	0.3723	0.4797	0.00E+00			
136.65	3.7554	8.94426	67.89539	133.872	76.993239	0.0588	0.3754	0.5005	0.00E+00			
136.732	3.7556	8.9407	67.86886	133.871	76.993239	0.0588	0.3815	0.5005	0.00E+00			
136.828	3.7559	8.94034	67.86669	133.87	76.99324	0.0588	0.3693	0.5005	0.00E+00			
136.926	3.7558	8.9401	67.86454	133.87	76.993241	0.0588	0.3754	0.5029	0.00E+00			
137.029	3.7554	8.94151	67.87455	133.922	77.021908	0.0588	0.3662	0.481	0.00E+00			
137.127	3.7561	8.93905	67.85725	134.018	77.079241	0.0589	0.3723	0.4785	0.00E+00			
137.232	3.7558	8.94245	67.88244	133.72	76.907244	0.0587	0.3754	0.4785	0.00E+00			
137.33	3.7555	8.93705	67.8409	134.021	77.079242	0.0589	0.3815	0.4822	0.00E+00			
137.411	3.7556	8.93432	67.82041	133.871	76.993244	0.0588	0.3784	0.5005	0.00E+00			
137.48	3.7558	8.93714	67.84225	134.02	77.079243	0.0589	0.3815	0.5005	0.00E+00			
137.551	3.7561	8.93437	67.82167	134.018	77.079244	0.0589	0.3754	0.5005	0.00E+00			
137.635	3.7562	8.93804	67.8497	133.918	77.021912	0.0588	0.3693	0.4956	0.00E+00			
137.733	3.7557	8.93468	67.82331	134.02	77.079245	0.0589	0.3723	0.4834	0.00E+00			
137.841	3.755	8.93457	67.82124	133.874	76.993247	0.0588	0.3723	0.4785	0.00E+00			
137.935	3.7549	8.9379	67.84634	134.024	77.079247	0.0589	0.3815	0.4785	0.00E+00			
138.006	3.7551	8.93195	67.80152	134.023	77.079247	0.0589	0.3754	0.4797	0.00E+00			
138.071	3.7552	8.93161	67.79907	134.023	77.079248	0.0589	0.3723	0.5005	0.00E+00			
138.16	3.7551	8.93454	67.82108	133.874	76.99325	0.0588	0.3723	0.5029	0.00E+00			
138.269	3.7548	8.93473	67.82206	133.875	76.99325	0.0588	0.3876	0.5042	0.00E+00			
138.375	3.7544	8.93415	67.81695	133.827	76.964585	0.0588	0.3693	0.4993	0.00E+00			
138.46	3.7546	8.93499	67.82377	133.875	76.993252	0.0588	0.3784	0.4834	0.00E+00			
138.531	3.7542	8.93278	67.80622	134.027	77.079251	0.0589	0.3662	0.4822	0.00E+00			
138.605	3.7545	8.92761	67.76749	133.876	76.993253	0.0588	0.3754	0.4797	0.00E+00			
138.693	3.7539	8.93025	67.78647	133.729	76.907255	0.0587	0.3662	0.4858	0.00E+00			
138.802	3.7538	8.93119	67.7935	133.879	76.993255	0.0588	0.3754	0.5005	0.00E+00			
138.907	3.7539	8.9309	67.79142	134.029	77.079254	0.0589	0.3784	0.4956	0.00E+00			
139.001	3.7541	8.92737	67.76498	133.928	77.021922	0.0588	0.3723	0.4968	0.00E+00			
139.088	3.7544	8.93059	67.79001	133.876	76.993256	0.0588	0.3784	0.5005	0.00E+00			
139.172	3.7538	8.92804	67.76955	133.879	76.993257	0.0588	0.3693	0.5029	0.00E+00			
139.259	3.7541	8.92567	67.75214	134.027	77.079257	0.0589	0.3632	0.5042	0.00E+00			
139.359	3.7544	8.92254	67.72879	133.877	76.993258	0.0588	0.3754	0.5005	0.00E+00			
139.46	3.7544	8.92465	67.74485	134.026	77.079258	0.0589	0.3784	0.4993	0.00E+00			
139.544	3.7536	8.92055	67.71227	133.88	76.99326	0.0588	0.3723	0.5005	0.00E+00			
139.616	3.7537	8.91701	67.68563	134.179	77.165259	0.0589	0.3662	0.5005	0.00E+00			
139.695	3.7541	8.91941	67.70453	133.928	77.021927	0.0588	0.3723	0.5029	0.00E+00			
139.792	3.7537	8.91761	67.69024	133.88	76.993262	0.0588	0.3693	0.5005	0.00E+00			
139.901	3.7537	8.91735	67.68819	133.73	76.907264	0.0587	0.3784	0.4981	0.00E+00			
140.011	3.7538	8.91584	67.67705	134.178	77.165261	0.0589	0.3754	0.4993	0.00E+00			
140.113	3.7539	8.91436	67.66584	133.879	76.993264	0.0588	0.3784	0.5005	0.00E+00			
140.198	3.7539	8.91686	67.68479	133.879	76.993265	0.0588	0.3662	0.5005	0.00E+00			
140.267	3.7535	8.90825	67.61872	134.03	77.079264	0.0589	0.3754	0.5029	0.00E+00			
140.357	3.7538	8.91187	67.6468	134.029	77.079265	0.0589	0.3754	0.4981	0.00E+00			
140.472	3.7532	8.91096	67.63874	133.932	77.021933	0.0588	0.3693	0.5029	0.00E+00			
140.592	3.7537	8.91018	67.63375	133.88	76.993268	0.0588	0.3632	0.5005	0.00E+00			
140.688	3.754	8.90823	67.61945	133.879	76.993268	0.0588	0.3815	0.4822	0.00E+00			
140.766	3.7536	8.9052	67.5959	134.179	77.165267	0.0589	0.3723	0.4846	0.00E+00			
140.849	3.7536	8.90771	67.61483	133.88	76.993269	0.0588	0.3784	0.4797	0.00E+00			
140.933	3.7532	8.9047	67.59134	133.882	76.99327	0.0588	0.3662	0.4797	0.00E+00			
141.02	3.7537	8.90629	67.60424	134.03	77.07927	0.0589	0.3754	0.4834	0.00E+00			
141.128	3.7534	8.9037	67.58399	133.832	76.964605	0.0588	0.3815	0.4797	0.00E+00			
141.238	3.7531	8.90829	67.61832	133.883	76.993272	0.0588	0.3845	0.4822	0.00E+00			
141.326	3.753	8.9072	67.61001	134.182	77.165271	0.0589	0.3754	0.481	0.00E+00			
141.409	3.7532	8.8917	67.49251	133.882	76.993274	0.0588	0.3662	0.5005	0.00E+00			
141.51	3.7528	8.90788	67.61469	133.884	76.993274	0.0588	0.3693	0.4993	0.00E+00			
141.617	3.7526	8.90126	67.5641	133.885	76.993275	0.0588	0.3723	0.5005	0.00E+00			
141.715	3.7529	8.9005	67.55891	133.884	76.993276	0.0588	0.3845	0.5005	0.00E+00			
141.804	3.7531	8.90337	67.58094	133.883	76.993276	0.0588	0.3723	0.4822	0.00E+00			
141.883	3.7525	8.90519	67.59377	134.085	77.107942	0.0589	0.3754	0.4822	0.00E+00			
141.951	3.7527	8.90404	67.58528	133.885	76.993278	0.0588	0.3723	0.481	0.00E+00			
142.023	3.7525	8.90176	67.56773	133.736	76.90728	0.0587	0.3754	0.481	0.00E+00			
142.124	3.7528	8.89543	67.52013	133.884	76.993279	0.0588	0.3784	0.481	0.00E+00			
142.243	3.7524	8.90405	67.58486	134.036	77.079279	0.0589	0.3723	0.4785	0.00E+00			
142.368	3.7526	8.90214	67.57082	134.035	77.07928	0.0589	0.3632	0.481	0.00E+00			
142.483	3.7525	8.89591	67.52334	133.885	76.993282	0.0588	0.3754	0.4834	0.00E+00			
142.597	3.7525	8.90283	67.57591	134.234	77.193947	0.059	0.3662	0.5005	0.00E+00			
142.704	3.7524	8.88581	67.44647	133.886	76.993283	0.0588	0.3662	0.4993	0.00E+00			
142.811	3.7526	8.88628	67.45046	134.035	77.079283	0.0589	0.3723	0.5029	0.00E+00			
142.912	3.7522	8.88769	67.46046	134.186	77.165283	0.0589	0.3754	0.4968	0.00E+00			
143.009	3.7527	8.88769	67.46132	133.885	76.993285	0.0588	0.3723	0.4797	0.00E+00			
143.083	3.7527	8.90217	67.57115	134.034	77.079285	0.0589	0.3815	0.481	0.00E+00			
143.145	3.7528	8.88904	67.47163	133.884	76.993286	0.0588	0.3693	0.4785	0.00E+00			
143.23	3.7526	8.88918	67.47239	134.035	77.079286	0.0589	0.3723	0.4822	0.00E+00			
143.354	3.7525	8.90812	67.61603	133.935	77.021954	0.0588	0.3754	0.4785	0.00E+00			
143.486	3.7526	8.88948	67.47469	133.885	76.993289	0.0588	0.3723	0.4797	0.00E+00			
143.599	3.7524	8.89005	67.47872	134.036	77.079289	0.0589	0.3784	0.4785	0.00E+00			
143.698	3.7524	8.89137	67.4887	133.886	76.99329	0.0588	0.3754	0.4736	0.00E+00			
143.793	3.7517	8.89004	67.47743	134.039	77.07929	0.0589	0.3784	0.4785	0.00E+00			
143.9	3.7525	8.88919	67.47232	133.885	76.993292	0.0588	0.3693	0.481	0.00E+00			
144.012	3.7517	8.87113	67.33381	134.039	77.079292	0.0589	0.3815	0.4785	0.00E+00			
144.119	3.7521	8.89113	67.4864	134.186	77.165292	0.0589	0.3693	0.4834	0.00E+00			
144.198	3.7521	8.88046	67.40522	133.838	76.964628	0.0588	0.3754	0.4761	0.00E+00			
144.257	3.752	8.88972	67.4755	134.187	77.165293	0.0589	0.3845	0.4797	0.00E+00			
144.335	3.7519	8.89263	67.49744	134.187	77.165293	0.0589	0.3754	0.481	0.00E+00			
144.439	3.7515	8.89366	67.50442	133.89	76.993296	0.0588	0.3723	0.481	0.00E+00			
144.552	3.7515	8.89058	67.48117	134.189	77.165295	0.0589	0.3723	0.4834	0.00E+00			
144.672	3.7515	8.89072	67.48224	134.04	77.079297	0.0589	0.3815	0.4797	0.00E+00			
144.785	3.7512	8.89452	67.51055	134.041	77.079297	0.0589	0.3845	0.4834	0.00E+00			
144.887	3.7515	8.89097	67.48417	134.089	77.107964	0.0589	0.3754	0.4785	0.00E+00			
144.983	3.7515	8.87071	67.33033	134.04	77.079299	0.0589	0.3754	0.4822	0.00E+00			
145.072	3.7516	8.88238	67.41909	134.039	77.079299	0.0589	0.3815	0.4785	0.00E+00			
145.165	3.7517	8.87007	67.32588	134.039	77.0793	0.0589	0.3754	0.4797	0.00E+00			
145.268	3.7513	8.88868	67.46634	134.041	77.079301	0.0589	0.3815	0.4761	0.00E+00			
145.371	3.7513	8.87441	67.35806	134.041	77.079302	0.0589	0.3815	0.4834	0.00E+00			
145.463	3.7514	8.87051	67.32854	133.741	76.907305	0.0587	0.3876	0.4822	0.00E+00			
145.552	3.7519	8.87728	67.3809	134.187	77.165302	0.0589	0.3754	0.481	0.00E+00			
145.647	3.752	8.88817	67.46365	133.938	77.021971	0.0588	0.3754	0.481	0.00E+00			
145.748	3.752	8.87229	67.34322	134.187	77.165303	0.0589	0.3784	0.481	0.00E+00			
145.858	3.7518	8.87206	67.34116	134.038	77.079305	0.0589	0.3754	0.4773	0.00E+00			
145.975	3.7516	8.89143	67.48782	134.189	77.165305	0.0589	0.3754	0.481	0.00E+00			
146.073	3.7518	8.88751	67.45836	134.038	77.079307	0.0589	0.3693	0.4822	0.00E+00			
146.151	3.7514	8.88289	67.42265	134.04	77.079307	0.0589	0.3662	0.4822	0.00E+00			
146.219	3.7519	8.87527	67.36562	134.187	77.165307	0.0589	0.3723	0.4797	0.00E+00			
146.297	3.7518	8.87379	67.35418	134.088	77.107975	0.0589	0.3845	0.4834	0.00E+00			
146.402	3.7516	8.87514	67.36422	134.189	77.165308	0.0589	0.3784	0.481	0.00E+00			
146.51	3.7516	8.88248	67.41979	134.039	77.07931	0.0589	0.3662	0.4797	0.00E+00			
146.601	3.7512	8.87548	67.36599	133.891	76.993312	0.0588	0.3662	0.481	0.00E+00			
146.698	3.7515	8.88472	67.43664	134.04	77.079311	0.0589	0.3815	0.481	0.00E+00			
146.805	3.7516	8.88443	67.43455	134.039	77.079312	0.0589	0.3693	0.481	0.00E+00			
146.918	3.7515	8.89177	67.49018	134.04	77.079313	0.0589	0.3693	0.4822	0.00E+00			
147.033	3.7518	8.87664	67.37591	134.038	77.079314	0.0589	0.3723	0.4834	0.00E+00			
147.138	3.7512	8.88451	67.43449	134.241	77.19398	0.0589	0.3723	0.4761	0.00E+00			
147.224	3.7513	8.87539	67.36548	133.891	76.993316	0.0588	0.3662	0.4797	0.00E+00			
147.3	3.7513	8.88068	67.4056	134.041	77.079316	0.0589	0.3815	0.4993	0.00E+00			
147.373	3.7512	8.88718	67.4548	134.191	77.165315	0.0589	0.3845	0.5042	0.00E+00			
147.454	3.751	8.88292	67.42215	134.192	77.165316	0.0589	0.3723	0.5005	0.00E+00			
147.558	3.7517	8.88128	67.41094	134.039	77.079317	0.0589	0.3693	0.5005	0.00E+00			
147.681	3.7515	8.87549	67.36652	133.89	76.993319	0.0588	0.3693	0.5457	0.00E+00			
147.784	3.7514	8.88361	67.42813	134.09	77.107985	0.0589	0.3723	0.5396	0.00E+00			
147.868	3.7518	8.87722	67.38033	134.038	77.07932	0.0589	0.3693	0.542	0.00E+00			
147.94	3.7518	8.88052	67.40524	134.038	77.07932	0.0589	0.3815	0.5383	0.00E+00			
148.033	3.7522	8.87934	67.39697	134.186	77.16532	0.0589	0.3815	0.542	0.00E+00			
148.141	3.7521	8.88829	67.46469	134.037	77.079321	0.0589	0.3723	0.542	0.00E+00			
148.247	3.752	8.87923	67.39584	134.037	77.079322	0.0589	0.3815	0.542	0.00E+00			
148.341	3.7523	8.87888	67.39365	134.186	77.165322	0.0589	0.3723	0.5396	0.00E+00			
148.422	3.7524	8.87495	67.36403	134.185	77.165323	0.0589	0.3723	0.542	0.00E+00			
148.497	3.7523	8.87787	67.38594	133.937	77.021991	0.0588	0.3815	0.542	0.00E+00			
148.6	3.7524	8.87356	67.35348	133.886	76.993326	0.0588	0.3815	0.5432	0.00E+00			
148.732	3.7524	8.87931	67.39714	133.886	76.993327	0.0588	0.3693	0.5432	0.00E+00			
148.848	3.752	8.87554	67.36783	134.187	77.165326	0.0589	0.3693	0.5615	0.00E+00			
148.941	3.7522	8.87121	67.33527	133.887	76.993328	0.0588	0.3754	0.5591	0.00E+00			
149.024	3.752	8.87575	67.36939	134.037	77.079328	0.0589	0.3815	0.5652	0.00E+00			
149.11	3.7522	8.8746	67.36106	134.037	77.079328	0.0589	0.3815	0.5628	0.00E+00			
149.188	3.7523	8.87308	67.34962	134.036	77.079329	0.0589	0.3815	0.542	0.00E+00			
149.273	3.7522	8.87359	67.35341	133.937	77.021997	0.0588	0.3754	0.5432	0.00E+00			
149.372	3.7522	8.86891	67.31787	134.186	77.16533	0.0589	0.3723	0.5432	0.00E+00			
149.477	3.7514	8.87163	67.33702	133.891	76.993332	0.0588	0.3693	0.5383	0.00E+00			
149.589	3.7519	8.87484	67.3623	133.888	76.993333	0.0588	0.3815	0.5176	0.00E+00			
149.703	3.7521	8.87093	67.33296	134.336	77.251332	0.059	0.3754	0.5151	0.00E+00			
149.812	3.7513	8.87003	67.32482	134.34	77.251333	0.059	0.3693	0.52	0.00E+00			
149.911	3.7518	8.86845	67.31357	133.739	76.907337	0.0587	0.3662	0.5188	0.00E+00			
149.999	3.7515	8.8678	67.30828	133.94	77.022002	0.0588	0.3815	0.5237	0.00E+00			
150.084	3.7515	8.86791	67.30904	134.189	77.165335	0.0589	0.3754	0.52	0.00E+00			
150.17	3.7516	8.86479	67.28552	134.039	77.079336	0.0589	0.3845	0.52	0.00E+00			
150.26	3.7513	8.86576	67.2924	134.19	77.165336	0.0589	0.3662	0.52	0.00E+00			
150.355	3.7518	8.86415	67.2811	133.889	76.993339	0.0588	0.3815	0.5432	0.00E+00			
150.458	3.7518	8.86348	67.27595	134.038	77.079338	0.0589	0.3693	0.542	0.00E+00			
150.571	3.752	8.86437	67.28303	134.037	77.079339	0.0589	0.3723	0.5432	0.00E+00			
150.695	3.752	8.86532	67.29021	134.038	77.07934	0.0589	0.3815	0.542	0.00E+00			
150.813	3.7517	8.86552	67.29125	134.089	77.108007	0.0589	0.3693	0.5237	0.00E+00			
150.902	3.7515	8.86366	67.27687	134.189	77.165341	0.0589	0.3723	0.5176	0.00E+00			
150.977	3.7515	8.86095	67.25629	134.189	77.165341	0.0589	0.3723	0.52	0.00E+00			
151.055	3.752	8.86173	67.26306	134.337	77.251342	0.059	0.3693	0.52	0.00E+00			
151.121	3.7524	8.86372	67.27882	134.335	77.251342	0.059	0.3693	0.5359	0.00E+00			
151.185	3.7519	8.86152	67.26118	133.888	76.993345	0.0588	0.3754	0.5396	0.00E+00			
151.268	3.7518	8.86322	67.27406	134.188	77.165343	0.0589	0.3754	0.5432	0.00E+00			
151.372	3.7522	8.86446	67.28409	134.086	77.108011	0.0589	0.3662	0.5396	0.00E+00			
151.483	3.7518	8.86109	67.25776	134.038	77.079346	0.0589	0.3754	0.5628	0.00E+00			
151.603	3.7522	8.86275	67.27097	133.887	76.993347	0.0588	0.3845	0.5628	0.00E+00			
151.73	3.7523	8.85965	67.24782	134.186	77.165347	0.0589	0.3723	0.5664	0.00E+00			
151.842	3.7521	8.86423	67.28221	134.187	77.165348	0.0589	0.3723	0.5615	0.00E+00			
151.94	3.7522	8.86233	67.2679	134.186	77.165348	0.0589	0.3754	0.5628	0.00E+00			
152.024	3.7521	8.85887	67.24132	133.888	76.993351	0.0588	0.3723	0.5615	0.00E+00			
152.101	3.7525	8.86165	67.26326	134.185	77.165349	0.0589	0.3754	0.5615	0.00E+00			
152.184	3.7523	8.86139	67.26096	134.086	77.108017	0.0589	0.3662	0.5628	0.00E+00			
152.273	3.7521	8.86235	67.26783	134.187	77.165351	0.0589	0.3815	0.5591	0.00E+00			
152.364	3.7518	8.8621	67.2656	134.188	77.165351	0.0589	0.3876	0.5628	0.00E+00			
152.438	3.7525	8.86045	67.25411	134.185	77.165352	0.0589	0.3754	0.5591	0.00E+00			
152.507	3.7525	8.86013	67.2517	134.185	77.165352	0.0589	0.3815	0.5579	0.00E+00			
152.601	3.7526	8.86422	67.28289	134.035	77.079354	0.0588	0.3754	0.5823	0.00E+00			
152.712	3.7527	8.86433	67.28388	134.034	77.079354	0.0588	0.3754	0.5823	0.00E+00			
152.795	3.7523	8.86052	67.25426	134.086	77.108022	0.0589	0.3723	0.5859	0.00E+00			
152.832	3.7522	8.85978	67.24851	134.037	77.079355	0.0588	0.3754	0.5859	0.00E+00			
152.847	3.7526	8.8565	67.22436	134.184	77.165355	0.0589	0.3754	0.6018	0.00E+00			
152.86	3.7524	8.85777	67.23358	134.185	77.165355	0.0589	0.3662	0.6043	0.00E+00			
152.873	3.7527	8.85851	67.23977	134.334	77.251355	0.059	0.3662	0.6055	0.00E+00			
152.888	3.7525	8.86298	67.27331	134.185	77.165355	0.0589	0.3632	0.6043	0.00E+00			
152.901	3.7526	8.85937	67.2461	134.035	77.079356	0.0588	0.3723	0.6213	0.00E+00			
152.908	3.7526	8.86336	67.27652	134.184	77.165355	0.0589	0.3693	0.6201	0.00E+00			
